File: FirefighterJacket/data/DMA/feb26_dma/feb26_strain30.csv
Time	Sample     	Program Temperature	Frequency     	Raw Dynamic	Raw Static	In-Phase     	Out-Of-Phase	Zero Displacement	Min Displacement	Max Displacement	Spring     	C*     	Measured     	Corrected     	Corrected     	Stiffness*	Total     	Stiffness     	Inertia     	Sample     	Ratio of     	Total     	Sample     	Total Applied	Static Force	Static     	Static Displacement	Static Displacement Corrected	Static Stress	Static     	Static Strain	Static     	Dynamic Force	Displacement	Dynamic     	Dynamic     	Storage Modulus	Loss Modulus	Tan Delta	Loss Viscosity	Storage     	Complex     	Shear Storage	Shear Loss	Complex     	Shear Complex
          	Temperature		          	Force     	Force     	Angle     	Angle     	               	               	               	Stiffness     	          	Tan Delta     	Total Tan Delta	Total Delta	          	Stiffness'	Less Spring	          	Stiffness'	Sample to Total	Stiffness''	Stiffness''	Static Force	          	Force Corrected	Displacement	Displacement Co	          	Stress Correcte	          	Strain Correcte	          	Amplitude     	Stress     	Strain     		          	          	               	Viscosity     	Viscosity     	Modulus     	Modulus     	Modulus     	Modulus
0	93.9875	94	1.000001	166	2171	570987	127047.25	40893208	38932.875	40740.5	0.000045	584951	0.222505	0.209178	0.206204	14875.2	14593.2	12243.4	1.863819	12245.3	0.839002	3060.15	3058.76	0.646509	0.979066	0	0.141527	0	265531	0	0.024276	0	0.363073	0.028419	98468.5	0.004875	1.93616e+07	4.83635e+06	0.249791	769728	3.08148e+06	3.17617e+06	7.17095e+06	1.79124e+06	1.99565e+07	7.39128e+06
8.253142	110.425	110.506	1.000001	171	2174	600903.875	104777.625	40906465.875	38900.5	40772.375	0.000045	609970	0.174367	0.161274	0.159898	14694.7	14540.7	12191.2	1.863819	12193	0.838436	2350.76	2349.37	0.66215	0.993693	0.014626	0.141108	0.000419	269498	3966.8	0.024204	0.000072	0.373757	0.02989	101366	0.005127	1.9279e+07	3.71469e+06	0.192681	591211	3.06834e+06	3.12478e+06	7.14037e+06	1.37581e+06	1.96336e+07	7.2717e+06
16.446	126.7	126.892	1.000001	171	2174	593856.375	101374.125	40890589.125	38896.625	40739.125	0.000045	602447	0.170705	0.157628	0.156342	14878.2	14731.2	12381.4	1.863819	12383.2	0.840507	2327.76	2326.37	0.66215	0.994908	0.015842	0.14161	0.000083	269828	4296.45	0.02429	0.000014	0.37468	0.029537	101616	0.005066	1.95797e+07	3.67833e+06	0.187865	585424	3.1162e+06	3.17071e+06	7.25173e+06	1.36235e+06	1.99222e+07	7.37859e+06
24.9701	143.825	143.94	1.000001	198	2195	582382.75	108545.25	41378485.5	39367.375	41205.75	0.000045	592412	0.186381	0.173236	0.171533	17519.2	17309.4	14967	1.863819	14968.8	0.864689	3007.33	3005.94	0.77164	1.067198	0.088132	0.126178	0.01535	289433	23902.1	0.021643	0.002633	0.446322	0.02896	121046	0.004967	2.36679e+07	4.75283e+06	0.200813	756435	3.76686e+06	3.84206e+06	8.76589e+06	1.76031e+06	2.41404e+07	8.94089e+06
33.4253	139.9625	139.256	1.000001	226	2216	590506.875	103236.125	42297988.375	40243.375	42102.375	0.000044	599463	0.174826	0.161732	0.160344	19761.5	19568.6	17238.5	1.863819	17240.4	0.880938	3175.24	3173.86	0.881129	1.107366	0.1283	0.097093	0.044434	300327	34795.9	0.016654	0.007622	0.519011	0.029348	140760	0.005034	2.72595e+07	5.01833e+06	0.184094	798691	4.33849e+06	4.41139e+06	1.00961e+07	1.85864e+06	2.77176e+07	1.02658e+07
41.6658	123.1375	122.775	1.000001	226	2216	604956.625	99051.375	42531543.875	40441.625	42346.25	0.000044	613012	0.163733	0.150685	0.149559	19324.7	19167.3	16840	1.863819	16841.9	0.878591	2897.46	2896.08	0.881129	1.089904	0.110837	0.089706	0.051822	295591	30060	0.015387	0.008889	0.517628	0.030064	140385	0.005157	2.66295e+07	4.57913e+06	0.171957	728790	4.23821e+06	4.30041e+06	9.86277e+06	1.69597e+06	2.70203e+07	1.00075e+07
49.9575	106.65	106.192	1.000001	216	2209	602552.875	99631.875	42598220.375	40509.875	42415	0.000044	610734	0.16535	0.152295	0.151133	18538.5	18380.8	16054.3	1.863819	16056.2	0.873438	2807.89	2806.52	0.844633	1.048432	0.069366	0.087597	0.053931	284344	18812.5	0.015025	0.009251	0.491823	0.029949	133387	0.005137	2.53871e+07	4.43751e+06	0.174794	706251	4.04048e+06	4.10174e+06	9.40263e+06	1.64352e+06	2.5772e+07	9.54519e+06
58.1537	90.25	89.79952	1.000001	216	2209	597257.5	102964.25	42710091	40617.375	42509.875	0.000044	606068	0.172395	0.159311	0.157983	18681.2	18502.9	16177.6	1.863819	16179.4	0.87434	2956.83	2955.46	0.844633	1.040094	0.061027	0.084058	0.057469	282082	16551.1	0.014418	0.009857	0.492331	0.029688	133524	0.005092	2.5582e+07	4.67301e+06	0.182668	743731	4.0715e+06	4.13887e+06	9.47482e+06	1.73074e+06	2.60053e+07	9.6316e+06
66.3653	76	73.3763	1.000001	216	2209	585057.875	106976.625	42803797.875	40730.25	42587.625	0.000044	594758	0.182848	0.169719	0.168117	19036.5	18824.1	16499.8	1.863819	16501.7	0.876539	3204.89	3203.51	0.844633	1.033118	0.054052	0.081094	0.060433	280190	14659.3	0.01391	0.010366	0.493569	0.029084	133860	0.004989	2.60915e+07	5.06522e+06	0.194133	806153	4.15259e+06	4.23012e+06	9.66352e+06	1.87601e+06	2.65786e+07	9.84394e+06
74.69103	65.1	56.7249	1.000001	232	2221	581162.125	110473.875	42988750.125	40898.5	42763.75	0.000044	591569	0.190091	0.176929	0.175117	20556.8	20307.4	17985	1.863819	17986.9	0.885652	3605.23	3603.86	0.907198	1.081939	0.102873	0.075244	0.066283	293431	27899.9	0.012906	0.011369	0.535641	0.028886	145270	0.004955	2.84399e+07	5.69822e+06	0.20036	906900	4.52635e+06	4.61631e+06	1.05333e+07	2.11045e+06	2.90052e+07	1.07426e+07
83.0485	56.875	40.01	1.000001	253	2236	584964	113477.25	43189280	41073.75	42961.125	0.000044	595869	0.19399	0.180809	0.178877	22255.8	21976.6	19656.3	1.863819	19658.2	0.894429	3988.29	3986.91	0.985405	1.145276	0.16621	0.068901	0.072626	310609	45077.6	0.011818	0.012457	0.589915	0.029069	159990	0.004986	3.10824e+07	6.30389e+06	0.202812	1.00329e+06	4.94692e+06	5.04763e+06	1.1512e+07	2.33477e+06	3.17152e+07	1.17464e+07
91.2694	72.15	55.9162	1.000001	253	2236	585151.25	111979.25	43061334.5	40960.25	42838.625	0.000044	595770	0.191368	0.1782	0.176348	22259.5	21990.4	19668.8	1.863819	19670.7	0.894437	3933.18	3931.81	0.985405	1.15476	0.175693	0.072948	0.068579	313181	47649.5	0.012513	0.011763	0.58992	0.029077	159991	0.004987	3.11022e+07	6.21676e+06	0.199882	989427	4.95006e+06	5.04798e+06	1.15193e+07	2.3025e+06	3.17174e+07	1.17472e+07
99.4901	88.5875	72.3576	1.000001	253	2236	592205.375	110514.875	42953901.375	40860.375	42746.5	0.000044	602429	0.186616	0.173469	0.17176	22013.4	21764.2	19441.5	1.863819	19443.4	0.893289	3789.23	3787.85	0.985405	1.162733	0.183667	0.076347	0.065181	315343	49812	0.013095	0.01118	0.589163	0.029427	159786	0.005047	3.07428e+07	5.98915e+06	0.194815	953202	4.89286e+06	4.98485e+06	1.13862e+07	2.2182e+06	3.13208e+07	1.16003e+07
107.674	104.85	88.7256	1.000001	253	2236	602520.625	109398.125	42861296.875	40753.375	42668.75	0.000044	612372	0.181567	0.168444	0.166877	21656	21427.7	19104	1.863819	19105.9	0.891568	3622.34	3620.96	0.985405	1.169614	0.190548	0.079276	0.062252	317209	51678.2	0.013598	0.010678	0.588028	0.029939	159478	0.005135	3.02092e+07	5.72527e+06	0.189521	911204	4.80794e+06	4.89352e+06	1.11886e+07	2.12047e+06	3.07469e+07	1.13878e+07
115.936	121.4375	105.25	1.000001	248	2233	604874.375	107462.875	42743410.875	40637.625	42555.375	0.000044	614346	0.177661	0.164555	0.163093	21159.8	20948.4	18623.5	1.863819	18625.3	0.889026	3459.27	3457.89	0.969764	1.162743	0.183677	0.083004	0.058523	315346	49814.7	0.014237	0.010038	0.574763	0.030057	155881	0.005156	2.94494e+07	5.46742e+06	0.185655	870167	4.68701e+06	4.7671e+06	1.09072e+07	2.02497e+06	2.99526e+07	1.10936e+07
124.177	137.8625	121.732	1.000001	242	2228	603116.875	107718.125	42619627.125	40527.625	42431.625	0.000044	612661	0.178602	0.165492	0.164005	20704.7	20493.2	18166.9	1.863819	18168.8	0.886494	3403.11	3401.74	0.943695	1.145897	0.166831	0.08692	0.054608	310777	45246	0.014909	0.009367	0.559261	0.029972	151676	0.005141	2.87275e+07	5.37864e+06	0.18723	856036	4.57212e+06	4.65157e+06	1.06398e+07	1.99209e+06	2.92267e+07	1.08247e+07
132.438	147.175	145.246	1.000001	242	2228	586298.875	102748.125	42738450.125	40670.625	42525	0.000044	595234	0.175249	0.162153	0.160753	21310.8	21106.6	18781.6	1.863819	18783.5	0.889855	3434.59	3433.21	0.943695	1.137044	0.157977	0.083161	0.058366	308376	42844.8	0.014264	0.010011	0.561381	0.029132	152251	0.004997	2.96994e+07	5.4284e+06	0.182778	863956	4.7268e+06	4.80511e+06	1.09998e+07	2.01052e+06	3.01914e+07	1.1182e+07
140.654	128.9875	128.814	1.000001	242	2228	595382.625	95428.125	43000908.625	40899	42786.5	0.000044	602982	0.16028	0.147246	0.146195	21037	20882	18559.8	1.863819	18561.6	0.888804	3085.48	3084.1	0.943695	1.117533	0.138467	0.07486	0.066668	303084	37553.3	0.01284	0.011435	0.560718	0.029579	152071	0.005074	2.93486e+07	4.87642e+06	0.166155	776105	4.67098e+06	4.73502e+06	1.08699e+07	1.80608e+06	2.9751e+07	1.10189e+07
148.887	112.5875	112.348	1.000001	242	2228	599259.875	95088.875	43140722.375	41027.25	42926.375	0.000044	606757	0.158677	0.145649	0.144632	20906.1	20756.4	18435.6	1.863819	18437.5	0.8882	3033.6	3032.22	0.943695	1.107164	0.128097	0.070437	0.07109	300272	34741.1	0.012082	0.012194	0.560337	0.029772	151968	0.005107	2.91523e+07	4.79438e+06	0.16446	763049	4.63974e+06	4.70206e+06	1.07972e+07	1.7757e+06	2.9544e+07	1.09422e+07
157.132	96.025	95.8565	1.000001	242	2228	597754.125	99027.375	43259487.875	41146	43044.875	0.000044	605901	0.165666	0.15261	0.151441	20935.6	20764.5	18444.9	1.863819	18446.7	0.888299	3179.85	3178.47	0.943695	1.098368	0.119302	0.066681	0.074847	297887	32355.6	0.011438	0.012838	0.560399	0.029699	151985	0.005094	2.9167e+07	5.02563e+06	0.172305	799853	4.64207e+06	4.71047e+06	1.08026e+07	1.86134e+06	2.95968e+07	1.09618e+07
165.357	80.6	79.4073	1.000001	242	2228	589250.25	104330.25	43360912	41244.25	43130.5	0.000044	598415	0.177056	0.163952	0.162506	21197.6	20988	18669.3	1.863819	18671.2	0.889535	3453.12	3451.75	0.943695	1.090865	0.111799	0.063473	0.078055	295852	30320.8	0.010887	0.013388	0.561179	0.02928	152196	0.005022	2.95218e+07	5.45771e+06	0.18487	868621	4.69854e+06	4.77816e+06	1.0934e+07	2.02137e+06	3.00221e+07	1.11193e+07
173.674	68.5625	62.7735	1.000001	251	2234	582875.625	108404.375	43484631.375	41369.75	43245	0.000044	592871	0.185982	0.172838	0.171148	22191.5	21943.2	19625.7	1.863819	19627.6	0.894395	3806.62	3805.24	0.974977	1.113007	0.13394	0.059559	0.081968	301857	36325.8	0.010216	0.01406	0.585229	0.028962	158719	0.004968	3.1034e+07	6.01664e+06	0.193872	957578	4.93922e+06	5.03118e+06	1.14941e+07	2.22839e+06	3.16119e+07	1.17081e+07
182.12	59.3	45.8823	1.000001	287	2261	581943.75	114126.5	43769224.25	41632	43522.75	0.000044	593029	0.196113	0.182922	0.180921	25367.6	25052.1	22737	1.863819	22738.9	0.907597	4601.93	4600.55	1.115749	1.232793	0.253726	0.050557	0.09097	334344	68812.7	0.008672	0.015604	0.679044	0.028905	184163	0.004958	3.59535e+07	7.27415e+06	0.202321	1.15772e+06	5.72217e+06	5.83811e+06	1.33161e+07	2.69413e+06	3.6682e+07	1.35859e+07
190.382	66.3875	50.1551	1.000001	299	2270	583789	115681	43790067.75	41655.25	43547.875	0.000044	595140	0.198155	0.184955	0.182888	26334.5	26001.4	23686.5	1.863819	23688.3	0.910977	4830.17	4828.8	1.162674	1.278182	0.299116	0.049898	0.091629	346654	81122.7	0.008559	0.015717	0.710071	0.028993	192577	0.004973	3.74547e+07	7.63504e+06	0.203847	1.21515e+06	5.9611e+06	6.08369e+06	1.38721e+07	2.82779e+06	3.8225e+07	1.41574e+07
194.575	74.4625	58.5417	1.000001	299	2270	586197.5	115178.5	43729802.75	41592.5	43495.75	0.000044	597406	0.196484	0.183291	0.181279	26234.6	25910.1	23594.7	1.863819	23596.6	0.910644	4769.85	4768.48	1.162674	1.282621	0.303554	0.051804	0.089723	347858	82326.4	0.008886	0.01539	0.709811	0.029112	192507	0.004994	3.73097e+07	7.53966e+06	0.202083	1.19997e+06	5.93801e+06	6.05805e+06	1.38184e+07	2.79247e+06	3.80639e+07	1.40977e+07