File: FirefighterJacket/data/DMA/feb26_dma/Nomex Feb26_30_DCnone.txt
Filename:	P:\+Courses\MatSci\Spring2016\Emily_Adam\DMA\Nomex Feb26_30_DCnone.dm8d
Operator ID:	EmilyAdam
Sample ID:	outerlayer_Feb26_30_DCnone
Comment: 	three cycles, strain at 30 microns, drive control mode=none
Serial Number:	3066274
Data Collected:	2/26/2016 8:39:41 PM
Validation
Validated:	No
By:
Date:
Calibration Information
Filename:	C:\Program Files (x86)\PerkinElmer\Pyris\Calibrations\2_16_16 Tension.dm8c
Date/Time:
Initial Conditions
Temperature:
Measuring System:	Tension - Rectangle
Clamp Mass	9.343 g
Length:	5.830 mm
Width:	8.380 mm
Thickness:	0.440 mm
End Condition:	Go To Load
Total Points in Run:	2277
Method Steps:
Pre-Run Actions
Start the Run
	Action occurs Immediately
Switch the Gas to Nitrogen at 20.0 ml/min
	Action occurs Immediately
1)	Heat from 75.00°C to 150.00°C at 2.00°C/min

2)	Cool from 150.00°C to 40.00°C at 2.00°C/min

3)	Heat from 40.00°C to 150.00°C at 2.00°C/min

4)	Cool from 150.00°C to 40.00°C at 2.00°C/min

5)	Heat from 40.00°C to 150.00°C at 2.00°C/min

6)	Cool from 150.00°C to 40.00°C at 2.00°C/min

1) DMA8000 Temperature Scan
	Time     	Sample     	Program     	Frequency     	Raw Dynamic	Raw Static	In-Phase     	Out-Of-Phase	Zero Displacement	Min Displacement	Max Displacement	Spring     	C*     	Measured     	Corrected     	Corrected     	Stiffness*	Total     	Stiffness     	Inertia     	Sample     	Ratio of     	Total     	Sample     	Total Applied	Static Force	Static     	Static     	Static     	Static Stress	Static     	Static Strain	Static     	Dynamic Force	Displacement	Dynamic     	Dynamic     	Storage     	Loss Modulus	Tan Delta     	Loss Viscosity	Storage     	Complex     	Shear Storage	Shear Loss	Complex     	Shear Complex
	          	Temperature	Temperature	          	Force     	Force     	Angle     	Angle     	               	               	               	Stiffness     	          	Tan Delta     	Total Tan Delta	Total Delta	          	Stiffness'	Less Spring	          	Stiffness'	Sample to Total	Stiffness''	Stiffness''	Static Force	          	Force Corrected	Displacement	Displacement Co	          	Stress Correcte	          	Strain Correcte	          	Amplitude     	Stress     	Strain     	Modulus     	          	          	               	Viscosity     	Viscosity     	Modulus     	Modulus     	Modulus     	Modulus
	0.000000	74.25	75	1.000001	66	2075	525350	68150.2	4.12118e+07	39306.4	40961.4	0.000045	529752	0.129724	0.116796	0.116270	6530.47	6493.15	4148.29	1.863819	4150.16	0.638975	759.191	757.801	0.145986	0.454221	0.000000	0.131451	0.000000	123189	0.000000	0.022547	0.000000	0.109939	0.026151	29816.3	0.004486	6.562e+06	1.19819e+06	0.182596	190698	1.04437e+06	1.06164e+06	2.43037e+06	443776	6.6705e+06	2.47055e+06
	1.578721	76.7625	78.1574	1.000001	74	2075	596317	66340.6	4.11518e+07	39111.2	40980.1	0.000045	599996	0.111251	0.098377	0.098061	6464.82	6440.45	4094.69	1.863819	4096.55	0.635882	634.264	632.874	0.145986	0.458789	0.004568	0.133348	0.001897	124428	1238.94	0.022873	0.000325	0.122668	0.029677	33268.6	0.005090	6.47724e+06	1.00067e+06	0.154490	159261	1.03088e+06	1.04311e+06	2.39898e+06	370617	6.55408e+06	2.42744e+06
	3.149123	80.2375	81.2982	1.000001	74	2075	592137	65736.2	4.1128e+07	39103.1	40952.8	0.000045	595775	0.111015	0.098142	0.097829	6510.62	6486.28	4140.15	1.863819	4142.02	0.638398	637.258	635.868	0.145986	0.460601	0.006380	0.134100	0.002648	124919	1730.29	0.023002	0.000454	0.123153	0.029468	33400.2	0.005055	6.54913e+06	1.0054e+06	0.153517	160014	1.04233e+06	1.05454e+06	2.4256e+06	372370	6.62586e+06	2.45402e+06
	4.708865	83.55	84.4177	1.000001	75	2075	594990	65262.4	4.11024e+07	39070.2	40928.5	0.000045	598558	0.109687	0.096817	0.096516	6567.92	6544.27	4197.75	1.863819	4199.61	0.641541	634.28	632.889	0.145986	0.462555	0.008334	0.134910	0.003459	125449	2260.22	0.023141	0.000593	0.125432	0.029610	34018.3	0.005079	6.6402e+06	1.00069e+06	0.150702	159265	1.05682e+06	1.06875e+06	2.45933e+06	370626	6.71518e+06	2.4871e+06
	6.290967	86.7125	87.5819	1.000001	75	2075	591746	65435.4	4.10766e+07	39049.2	40908.1	0.000045	595353	0.110580	0.097708	0.097399	6603.28	6578.97	4232.05	1.863819	4233.92	0.643371	643.516	642.126	0.145986	0.464528	0.010307	0.135728	0.004277	125984	2795.26	0.023281	0.000734	0.125790	0.029448	34115.3	0.005051	6.69444e+06	1.01529e+06	0.151662	161589	1.06545e+06	1.07764e+06	2.47942e+06	376035	6.77099e+06	2.50777e+06
	7.862669	90.025	90.7253	1.000001	76	2075	596115	65363.9	4.10488e+07	39014.4	40880.2	0.000045	599688	0.109650	0.096780	0.096480	6642.96	6619.13	4271.79	1.863819	4273.66	0.645470	641.301	639.91	0.145986	0.466650	0.012429	0.136607	0.005156	126559	3370.81	0.023432	0.000884	0.127883	0.029665	34682.9	0.005088	6.75727e+06	1.01179e+06	0.149734	161031	1.07545e+06	1.08744e+06	2.50269e+06	374737	6.8326e+06	2.53059e+06
	9.428911	93.1	93.8578	1.000001	76	2075	591490	65735.4	4.10242e+07	38996.8	40852.6	0.000045	595132	0.111135	0.098262	0.097947	6693.81	6668.9	4321.18	1.863819	4323.05	0.648058	656.019	654.628	0.145986	0.468525	0.014304	0.137384	0.005932	127068	3879.27	0.023565	0.001018	0.128396	0.029435	34822	0.005049	6.83537e+06	1.03506e+06	0.151427	164735	1.08788e+06	1.10028e+06	2.53162e+06	383356	6.91329e+06	2.56048e+06
	10.9985	96.2	96.9971	1.000001	77	2075	595605	65903.6	4.0996e+07	38963	40830.5	0.000045	599240	0.110650	0.097778	0.097468	6735.39	6710.69	4362.53	1.863819	4364.4	0.650184	656.883	655.491	0.145986	0.470679	0.016458	0.138276	0.006824	127652	4463.56	0.023718	0.001171	0.130512	0.029640	35395.9	0.005084	6.90075e+06	1.03643e+06	0.150191	164952	1.09829e+06	1.11061e+06	2.55583e+06	383862	6.97814e+06	2.5845e+06
	12.5624	99.325	100.125	1.000001	77	2075	590418	66235	4.097e+07	38951.5	40795.1	0.000045	594121	0.112183	0.099307	0.098983	6793.42	6767.56	4418.99	1.863819	4420.86	0.653063	672.817	671.425	0.145986	0.472669	0.018448	0.139099	0.007648	128192	5003.14	0.023859	0.001312	0.131090	0.029382	35552.6	0.005040	6.99002e+06	1.06162e+06	0.151877	168962	1.1125e+06	1.12525e+06	2.5889e+06	393193	7.07018e+06	2.61858e+06
	14.1282	102.475	103.256	1.000001	78	2075	594933	66326	4.09397e+07	38915.5	40772	0.000045	598619	0.111485	0.098611	0.098293	6829.94	6804.45	4455.41	1.863819	4457.27	0.654873	671.742	670.35	0.145986	0.474982	0.020761	0.140056	0.008604	128819	5630.64	0.024023	0.001476	0.133160	0.029606	36114.2	0.005078	7.04759e+06	1.05992e+06	0.150395	168692	1.12166e+06	1.13427e+06	2.61022e+06	392563	7.12685e+06	2.63957e+06
	15.6965	105.612	106.393	1.000001	78	2075	590286	66785.5	4.09125e+07	38893.6	40740.4	0.000045	594052	0.113141	0.100262	0.099928	6882.45	6855.69	4506.23	1.863819	4508.09	0.657390	688.143	686.751	0.145986	0.477065	0.022844	0.140917	0.009465	129384	6195.39	0.024171	0.001624	0.133672	0.029375	36253	0.005039	7.12795e+06	1.08585e+06	0.152338	172819	1.13445e+06	1.14753e+06	2.63998e+06	402168	7.21018e+06	2.67044e+06
	17.2752	108.725	109.55	1.000001	79	2075	594473	67030.9	4.08808e+07	38849	40714.5	0.000045	598241	0.112757	0.099879	0.099549	6921.88	6895.28	4545.31	1.863819	4547.18	0.659284	689.477	688.084	0.145986	0.479492	0.025271	0.141919	0.010468	130042	6853.67	0.024343	0.001796	0.135776	0.029583	36823.6	0.005074	7.18975e+06	1.08796e+06	0.151321	173154	1.14428e+06	1.15731e+06	2.66287e+06	402949	7.2716e+06	2.69318e+06
	18.836	111.963	112.672	1.000001	79	2075	589738	67385.5	4.08521e+07	38836.1	40682.4	0.000045	593575	0.114264	0.101382	0.101037	6976.29	6948.49	4598.07	1.863819	4599.93	0.661827	705.257	703.865	0.145986	0.481693	0.027472	0.142828	0.011377	130639	7450.73	0.024499	0.001951	0.136300	0.029348	36965.6	0.005034	7.27316e+06	1.11291e+06	0.153016	177125	1.15756e+06	1.17103e+06	2.69376e+06	412190	7.35782e+06	2.72512e+06
	20.4165	115.025	115.833	1.000001	80	2075	594551	68337.6	4.08182e+07	38789.6	40654.1	0.000045	598465	0.114940	0.102056	0.101704	7006.87	6978.51	4627.55	1.863819	4629.41	0.663203	713.02	711.627	0.145986	0.484289	0.030068	0.143899	0.012448	131343	8154.63	0.024683	0.002135	0.138312	0.029588	37511.4	0.005075	7.31977e+06	1.12519e+06	0.153719	179079	1.16498e+06	1.17866e+06	2.71103e+06	416736	7.40575e+06	2.74287e+06
	21.9708	118.1	118.942	1.000001	80	2075	590107	67872.4	4.07885e+07	38766.5	40619.9	0.000045	593997	0.115017	0.102133	0.101780	7059.57	7031.01	4679.57	1.863819	4681.43	0.665650	718.932	717.539	0.145986	0.486569	0.032348	0.144840	0.013389	131962	8773.09	0.024844	0.002297	0.138822	0.029366	37649.7	0.005037	7.40202e+06	1.13453e+06	0.153273	180566	1.17807e+06	1.19182e+06	2.74149e+06	420198	7.48846e+06	2.7735e+06
	23.5373	121.325	122.075	1.000001	81	2075	593580	68511	4.07532e+07	38728.4	40590	0.000045	597520	0.115420	0.102535	0.102178	7105.67	7076.69	4724.67	1.863819	4726.54	0.667727	726.456	725.062	0.145986	0.489279	0.035058	0.145957	0.014506	132697	9507.99	0.025036	0.002488	0.140996	0.029539	38239.3	0.005067	7.47335e+06	1.14643e+06	0.153402	182460	1.18942e+06	1.20333e+06	2.76791e+06	424603	7.56077e+06	2.80028e+06
	25.095	124.4	125.19	1.000001	81	2075	588865	68582.5	4.07205e+07	38712.8	40554.5	0.000045	592845	0.116466	0.103578	0.103210	7161.71	7131.8	4779.25	1.863819	4781.12	0.670219	739.564	738.17	0.145986	0.491786	0.037565	0.146990	0.015539	133377	10188	0.025213	0.002665	0.141522	0.029305	38382.1	0.005027	7.55964e+06	1.16715e+06	0.154393	185758	1.20315e+06	1.21741e+06	2.79987e+06	432280	7.64921e+06	2.83304e+06
	26.6532	127.45	128.306	1.000001	82	2075	592724	69231.8	4.06829e+07	38670.6	40519	0.000045	596754	0.116803	0.103914	0.103542	7202.63	7172.35	4819.19	1.863819	4821.06	0.671998	746.188	744.793	0.145986	0.494677	0.040455	0.148180	0.016729	134160	10971.9	0.025417	0.002869	0.143650	0.029497	38959	0.005059	7.62279e+06	1.17763e+06	0.154488	187425	1.2132e+06	1.2276e+06	2.82326e+06	436158	7.71322e+06	2.85675e+06
	28.2204	130.7	131.441	1.000001	82	2075	587118	69704.4	4.06472e+07	38646	40481.1	0.000045	591242	0.118723	0.105829	0.105436	7269.79	7237.86	4884.11	1.863819	4885.98	0.674885	766.887	765.492	0.145986	0.497420	0.043199	0.149309	0.017857	134905	11715.9	0.025610	0.003063	0.144267	0.029218	39126.4	0.005012	7.72544e+06	1.21035e+06	0.156671	192634	1.22954e+06	1.24454e+06	2.86127e+06	448280	7.81968e+06	2.89618e+06
	29.7867	133.8	134.573	1.000001	83	2075	590499	70550	4.06052e+07	38596.9	40441	0.000045	594699	0.119475	0.106579	0.106178	7315.67	7283.01	4928.58	1.863819	4930.44	0.676805	777.147	775.752	0.145986	0.500651	0.046429	0.150637	0.019185	135781	12592.1	0.025838	0.003291	0.146442	0.029386	39716.2	0.005041	7.79574e+06	1.22658e+06	0.157339	195216	1.24073e+06	1.25599e+06	2.88731e+06	454288	7.89165e+06	2.92283e+06
	31.349	136.887	137.698	1.000001	84	2075	593290	71011.4	4.05627e+07	38550.2	40407.2	0.000045	597525	0.119691	0.106794	0.106391	7368.79	7335.8	4980.65	1.863819	4982.52	0.679034	784.366	782.97	0.145986	0.503925	0.049704	0.151982	0.020531	136669	13480.2	0.026069	0.003522	0.148694	0.029525	40327.1	0.005064	7.87809e+06	1.23799e+06	0.157144	197032	1.25384e+06	1.26922e+06	2.91781e+06	458515	7.97476e+06	2.95362e+06
	32.9335	140.1	140.867	1.000001	84	2075	587121	71902.5	4.05204e+07	38521.1	40359.2	0.000045	591507	0.122466	0.109561	0.109126	7443.76	7408.31	5052.46	1.863819	5054.33	0.682079	812.656	811.26	0.145986	0.507180	0.052959	0.153318	0.021867	137552	14363	0.026298	0.003751	0.149361	0.029219	40508	0.005012	7.99163e+06	1.28272e+06	0.160508	204151	1.27191e+06	1.28819e+06	2.95986e+06	475082	8.09392e+06	2.99775e+06
	34.4989	143.238	143.998	1.000001	85	2075	589310	73021.4	4.04737e+07	38475.1	40311.4	0.000045	593817	0.123910	0.111000	0.110548	7503.07	7466.24	5109.61	1.863819	5111.47	0.684440	829.778	828.382	0.145986	0.510783	0.056562	0.154796	0.023344	138529	15340	0.026552	0.004004	0.151662	0.029328	41132.1	0.005031	8.08198e+06	1.30979e+06	0.162063	208460	1.28629e+06	1.30307e+06	2.99333e+06	485108	8.18743e+06	3.03238e+06
	36.0613	146.312	147.123	1.000001	86	2075	590872	74293.2	4.04266e+07	38426.4	40272.1	0.000045	595524	0.125735	0.112820	0.112345	7569.58	7530.99	5173.55	1.863819	5175.42	0.687046	850.704	849.307	0.145986	0.514422	0.060201	0.156287	0.024836	139516	16327.1	0.026807	0.004260	0.154031	0.029406	41774.4	0.005044	8.18309e+06	1.34288e+06	0.164104	213726	1.30238e+06	1.3198e+06	3.03077e+06	497362	8.29254e+06	3.07131e+06
	37.6244	149.35	150.249	1.000001	87	2075	592202	75123.9	4.03791e+07	38370.4	40226.4	0.000045	596948	0.126855	0.113937	0.113448	7639.34	7599.52	5241.27	1.863819	5243.14	0.689761	866.953	865.556	0.145986	0.518089	0.063868	0.157788	0.026337	140510	17321.4	0.027065	0.004517	0.156438	0.029472	42427.2	0.005055	8.29017e+06	1.36857e+06	0.165083	217814	1.31942e+06	1.33728e+06	3.07043e+06	506878	8.40237e+06	3.11199e+06
	37.8867	150	150.773	1.000001	87	2075	590878	75160.2	4.03718e+07	38374	40217.6	0.000045	595639	0.127201	0.114282	0.113788	7656.12	7615.94	5257.57	1.863819	5259.43	0.690413	871.457	870.06	0.145986	0.518655	0.064434	0.158020	0.026568	140664	17475	0.027105	0.004557	0.156585	0.029406	42467.3	0.005044	8.31593e+06	1.37569e+06	0.165428	218948	1.32352e+06	1.34151e+06	3.07997e+06	509515	8.42895e+06	3.12183e+06
2) DMA8000 Temperature Scan
	38.0146	150.1	149.744	1.000001	87	2075	591321	74646.2	4.03696e+07	38370	40213	0.000045	596014	0.126236	0.113320	0.112839	7651.31	7611.97	5253.57	1.863819	5255.43	0.690247	863.674	862.277	0.145986	0.518823	0.064602	0.158089	0.026637	140709	17520.6	0.027116	0.004569	0.156548	0.029428	42457.1	0.005048	8.3096e+06	1.36339e+06	0.164074	216989	1.32251e+06	1.3402e+06	3.07763e+06	504957	8.4207e+06	3.11878e+06
	40.3692	147.338	145.035	1.000001	87	2075	596288	72107.2	4.0372e+07	38365.8	40223.6	0.000045	600632	0.120927	0.108026	0.107609	7592.48	7557.76	5199.4	1.863819	5201.26	0.688031	817.456	816.059	0.145986	0.518640	0.064419	0.158014	0.026562	140660	17471	0.027104	0.004556	0.156045	0.029674	42320.8	0.005090	8.22395e+06	1.29031e+06	0.156896	205359	1.30888e+06	1.32489e+06	3.04591e+06	477892	8.32456e+06	3.08317e+06
	42.7144	141.225	140.345	1.000001	87	2075	608235	70128.1	4.04143e+07	38388.9	40283.2	0.000045	612265	0.115298	0.102413	0.102057	7448.23	7418.34	5060.7	1.863819	5062.56	0.682267	760.664	759.267	0.145986	0.515371	0.061150	0.156676	0.025224	139773	16584.4	0.026874	0.004327	0.154738	0.030267	41966.2	0.005192	8.00465e+06	1.20051e+06	0.149977	191067	1.27398e+06	1.28823e+06	2.96469e+06	444634	8.09417e+06	2.99784e+06
	45.0778	136.075	135.618	1.000001	85	2075	600769	67725.1	4.04584e+07	38438.6	40313.8	0.000045	604574	0.112731	0.099853	0.099523	7369.57	7341.8	4984.9	1.863819	4986.77	0.679057	733.988	732.592	0.145986	0.511962	0.057741	0.155279	0.023828	138849	15659.9	0.026635	0.004087	0.150469	0.029895	40808.6	0.005128	7.8848e+06	1.15833e+06	0.146907	184354	1.2549e+06	1.26837e+06	2.9203e+06	429013	7.96943e+06	2.95164e+06
	47.4451	131.35	130.883	1.000001	85	2075	608356	66616.5	4.04889e+07	38460.4	40354.5	0.000045	611992	0.109503	0.096634	0.096334	7280.25	7254.99	4898.61	1.863819	4900.47	0.675289	701.913	700.517	0.145986	0.509615	0.055394	0.154317	0.022866	138212	15023.4	0.026469	0.003922	0.149634	0.030271	40582.1	0.005192	7.74836e+06	1.10762e+06	0.142949	176283	1.23319e+06	1.24572e+06	2.86976e+06	410229	7.82713e+06	2.89894e+06
	49.7981	126.7	126.177	1.000001	83	2075	597967	65326	4.05215e+07	38518.9	40375.8	0.000045	601524	0.109247	0.096379	0.096082	7232.65	7207.68	4851.85	1.863819	4853.71	0.673234	695.49	694.094	0.145986	0.507102	0.052880	0.153286	0.021835	137530	14341.6	0.026293	0.003745	0.145669	0.029754	39506.7	0.005104	7.67443e+06	1.09746e+06	0.143003	174667	1.22142e+06	1.23385e+06	2.84238e+06	406468	7.7525e+06	2.8713e+06
	52.1524	122.013	121.469	1.000001	83	2075	603022	64433.4	4.05452e+07	38529.5	40409.9	0.000045	606454	0.106851	0.093989	0.093713	7173.86	7150.64	4795.21	1.863819	4797.07	0.670684	672.871	671.475	0.145986	0.505275	0.051054	0.152536	0.021085	137035	13846.2	0.026164	0.003617	0.145117	0.030005	39357	0.005147	7.58487e+06	1.0617e+06	0.139976	168975	1.20717e+06	1.21894e+06	2.80921e+06	393222	7.65881e+06	2.8366e+06
	54.5065	117.388	116.761	1.000001	83	2075	607831	64161.9	4.05675e+07	38531.6	40431.9	0.000045	611208	0.105559	0.092700	0.092436	7118.06	7095.81	4740.74	1.863819	4742.61	0.668192	658.548	657.153	0.145986	0.503555	0.049334	0.151830	0.020379	136568	13379.8	0.026043	0.003495	0.144578	0.030244	39210.8	0.005188	7.49875e+06	1.03905e+06	0.138564	165370	1.19346e+06	1.20487e+06	2.77732e+06	384835	7.5704e+06	2.80385e+06
	56.8569	112.575	112.06	1.000001	81	2075	595734	64045.6	4.05958e+07	38594.8	40452	0.000045	599167	0.107507	0.094643	0.094362	7086.15	7062.68	4708.08	1.863819	4709.95	0.666703	669.212	667.817	0.145986	0.501376	0.047155	0.150935	0.019484	135977	12788.9	0.025889	0.003342	0.140780	0.029643	38180.7	0.005085	7.44711e+06	1.05592e+06	0.141789	168054	1.18524e+06	1.1971e+06	2.75819e+06	391080	7.5216e+06	2.78578e+06
	59.2156	107.888	107.342	1.000001	81	2075	599641	63568.4	4.06163e+07	38607.9	40474	0.000045	603001	0.106011	0.093151	0.092883	7041.09	7018.7	4664.45	1.863819	4666.31	0.664663	654.553	653.158	0.145986	0.499800	0.045579	0.150287	0.018836	135550	12361.4	0.025778	0.003231	0.140349	0.029837	38063.9	0.005118	7.37812e+06	1.03274e+06	0.139973	164365	1.17426e+06	1.18571e+06	2.73264e+06	382495	7.45004e+06	2.75928e+06
[...]
	265.837	103.088	102.6	1.000001	82	2075	596229	62181	4.05941e+07	38577.5	40443	0.000045	599463	0.104290	0.091435	0.091181	7170.09	7148.56	4793.94	1.863819	4795.8	0.670702	654.396	653.001	0.145986	0.501509	0.047288	0.150990	0.019538	136014	12824.9	0.025899	0.003351	0.143373	0.029666	38883.9	0.005089	7.58286e+06	1.03249e+06	0.136161	164326	1.20685e+06	1.21799e+06	2.80847e+06	382403	7.65283e+06	2.83438e+06
	268.179	98.4	97.9162	1.000001	82	2075	600075	62434.1	4.06148e+07	38595.9	40464.6	0.000045	603314	0.104044	0.091189	0.090937	7124.32	7103.03	4748.76	1.863819	4750.62	0.668640	648.474	647.079	0.145986	0.499915	0.045694	0.150334	0.018883	135581	12392.5	0.025786	0.003239	0.142932	0.029858	38764.4	0.005121	7.51142e+06	1.02313e+06	0.136209	162835	1.19548e+06	1.20652e+06	2.78201e+06	378936	7.58078e+06	2.8077e+06
	270.547	93.625	93.1811	1.000001	82	2075	603593	63051.1	4.06335e+07	38608	40491.4	0.000045	606877	0.104460	0.091604	0.091349	7082.49	7061.02	4707.05	1.863819	4708.91	0.666713	647.566	646.171	0.145986	0.498471	0.044250	0.149741	0.018290	135190	12001.1	0.025685	0.003137	0.142520	0.030033	38652.6	0.005152	7.44548e+06	1.02169e+06	0.137223	162607	1.18498e+06	1.19609e+06	2.75758e+06	378404	7.51525e+06	2.78343e+06
	272.895	89.0125	88.485	1.000001	82	2075	606415	63773.5	4.06512e+07	38616.2	40511.2	0.000045	609759	0.105165	0.092307	0.092046	7049.02	7027.16	4673.48	1.863819	4675.34	0.665149	649.405	648.011	0.145986	0.497111	0.042889	0.149181	0.017730	134821	11632	0.025589	0.003041	0.142186	0.030174	38561.9	0.005176	7.3924e+06	1.0246e+06	0.138602	163070	1.17654e+06	1.18778e+06	2.73792e+06	379481	7.46306e+06	2.7641e+06
	275.254	84.375	83.7665	1.000001	82	2075	608757	64495.4	4.06684e+07	38621.6	40527.6	0.000045	612164	0.105946	0.093086	0.092819	7021.32	6999.01	4645.61	1.863819	4647.48	0.663843	652.261	650.866	0.145986	0.495794	0.041572	0.148640	0.017188	134463	11274.8	0.025496	0.002948	0.141906	0.030291	38486.2	0.005196	7.34834e+06	1.02911e+06	0.140047	163789	1.16952e+06	1.18094e+06	2.72161e+06	381154	7.42005e+06	2.74817e+06
	277.591	80.4125	79.0922	1.000001	82	2075	610636	65437.4	4.06839e+07	38638.8	40548	0.000045	614132	0.107163	0.094300	0.094022	6998.83	6975.77	4622.63	1.863819	4624.49	0.662760	658.569	657.175	0.145986	0.494596	0.040375	0.148147	0.016696	134139	10950.1	0.025411	0.002864	0.141675	0.030385	38423.4	0.005212	7.312e+06	1.03909e+06	0.142107	165376	1.16374e+06	1.17543e+06	2.70815e+06	384848	7.38546e+06	2.73536e+06
	279.949	76.7	74.3758	1.000001	80	2075	594400	65402.5	4.07051e+07	38687.5	40548.8	0.000045	597987	0.110031	0.097161	0.096857	7012.47	6987.49	4634.69	1.863819	4636.56	0.663374	679.691	678.297	0.145986	0.492974	0.038753	0.147479	0.016028	133699	10510.1	0.025297	0.002749	0.138348	0.029578	37521	0.005073	7.33107e+06	1.07249e+06	0.146293	170691	1.16678e+06	1.17919e+06	2.71521e+06	397217	7.4091e+06	2.74411e+06
	282.307	73.175	69.6599	1.000001	80	2075	594775	65722.4	4.07181e+07	38697.1	40559	0.000045	598396	0.110499	0.097628	0.097319	7007.68	6982.39	4629.81	1.863819	4631.67	0.663159	682.46	681.066	0.145986	0.491975	0.037754	0.147068	0.015616	133428	10239.2	0.025226	0.002679	0.138303	0.029597	37508.9	0.005077	7.32335e+06	1.07686e+06	0.147045	171388	1.16555e+06	1.17808e+06	2.71235e+06	398839	7.4021e+06	2.74152e+06
	284.642	70.0625	64.9913	1.000001	80	2075	595311	66178.6	4.07287e+07	38703	40570.1	0.000045	598978	0.111166	0.098293	0.097978	7000.87	6975.14	4622.73	1.863819	4624.6	0.662834	686.396	685.002	0.145986	0.491154	0.036933	0.146729	0.015278	133205	10016.4	0.025168	0.002621	0.138235	0.029624	37490.5	0.005081	7.31216e+06	1.08309e+06	0.148122	172379	1.16377e+06	1.17646e+06	2.70821e+06	401144	7.39194e+06	2.73776e+06
	286.983	67.2	60.3092	1.000001	80	2075	596115	66139.4	4.07397e+07	38713.1	40575.8	0.000045	599773	0.110951	0.098078	0.097765	6991.59	6966.04	4613.8	1.863819	4615.67	0.662419	683.998	682.605	0.145986	0.490316	0.036095	0.146384	0.014933	132978	9789.32	0.025109	0.002561	0.138148	0.029664	37467	0.005088	7.29804e+06	1.0793e+06	0.147889	171775	1.16152e+06	1.17415e+06	2.70298e+06	399740	7.37742e+06	2.73238e+06
	289.32	64.3	55.6344	1.000001	80	2075	595706	66283.5	4.07501e+07	38719.2	40588.5	0.000045	599383	0.111269	0.098395	0.098079	6996.14	6970.36	4618.3	1.863819	4620.16	0.662652	686.637	685.243	0.145986	0.489515	0.035294	0.146054	0.014603	132761	9571.94	0.025052	0.002505	0.138197	0.029644	37480.2	0.005085	7.30515e+06	1.08347e+06	0.148316	172439	1.16265e+06	1.17537e+06	2.70561e+06	401285	7.38506e+06	2.73521e+06
	291.662	62	50.9498	1.000001	80	2075	596237	66559.1	4.07587e+07	38730.5	40599.8	0.000045	599941	0.111632	0.098757	0.098438	6989.63	6963.62	4611.7	1.863819	4613.56	0.662346	688.497	687.104	0.145986	0.488851	0.034629	0.145780	0.014329	132580	9391.79	0.025005	0.002458	0.138133	0.029670	37462.9	0.005089	7.29471e+06	1.08641e+06	0.148931	172908	1.16099e+06	1.17379e+06	2.70174e+06	402374	7.37517e+06	2.73154e+06
	293.995	59.4	46.2853	1.000001	80	2075	596356	66476.8	4.07669e+07	38736.6	40604.6	0.000045	600049	0.111472	0.098597	0.098280	6988.37	6962.47	4610.68	1.863819	4612.54	0.662309	687.269	685.876	0.145986	0.488228	0.034007	0.145524	0.014073	132412	9223.08	0.024961	0.002414	0.138125	0.029676	37460.8	0.005090	7.2931e+06	1.08447e+06	0.148698	172599	1.16073e+06	1.17349e+06	2.70115e+06	401655	7.37329e+06	2.73085e+06
	296.32	57.3	41.6339	1.000001	80	2075	596259	66455.2	4.07749e+07	38749.5	40614.1	0.000045	599951	0.111454	0.098580	0.098262	6989.52	6963.63	4611.96	1.863819	4613.83	0.662384	687.258	685.865	0.145986	0.487608	0.033386	0.145268	0.013817	132243	9054.68	0.024917	0.002370	0.138141	0.029671	37465	0.005089	7.29513e+06	1.08445e+06	0.148654	172596	1.16106e+06	1.17381e+06	2.7019e+06	401649	7.3753e+06	2.73159e+06
	297.367	56.425	39.5404	1.000001	80	2075	596085	65923.6	4.07784e+07	38755.4	40612.2	0.000045	599719	0.110594	0.097722	0.097413	6992.21	6966.9	4615.29	1.863819	4617.16	0.662550	681.604	680.21	0.145986	0.487346	0.033125	0.145160	0.013709	132172	8983.82	0.024899	0.002351	0.138176	0.029662	37474.4	0.005088	7.30039e+06	1.07551e+06	0.147322	171173	1.16189e+06	1.17443e+06	2.70385e+06	398338	7.37919e+06	2.73303e+06

	BALANCE ZERO CALIBRATION RESULTS:
Date:	2/16/2016 3:55:56 PM
Zero Displacement Value:	45367595
Rebalance Force Value:	1980.000

	FORCE FACTOR CALIBRATION RESULTS:
Date:	7/27/2015 3:21:49 PM
Force Factor Value:	  383.599

	SPRING CALIBRATION RESULTS:
Date:	12/4/2014 2:37:24 PM
Stiffness polynomial = 	4.3980e-005, -7.5231e-014, 2.5704e-020, -3.6776e-029, -1.5883e-035, 2.9932e-045, 1.3748e-050
Spring Damping =	0.000593

	FORCE DISPLACEMENT CALIBRATION RESULTS:
Date:	2/26/2016 12:19:32 PM
Displacement Factor Value:	30874

	DE-MOD CONSTANT CALIBRATION RESULTS:
Date:	2/26/2016 12:19:32 PM
De-Mod Constant Value:	0.000562

	PHASE OFFSET CALIBRATION RESULTS:
Date:	2/26/2016 12:19:32 PM
Phase Offset Value:	   -0.009200

	DRIVE SHAFT MASS CALIBRATION RESULTS:
Date:	2/26/2016 12:19:32 PM
Drive Shaft Mass = 	   37.868 g

	OVEN CALIBRATION RESULTS:
Date:	2/26/2016 12:19:32 PM
Sensor Type = 	10
Oven Resistance = 	5.600 Ohms
Oven Name = 	Standard Air OvenStandard Air Oven

	TEMPERATURE CALIBRATION:
Date:	2/26/2016 12:19:32 PM
Upper Limit = 	400.00 °C
Lower Limit = 	-200.00 °C
Offset = 	-6.000
Span = 	-8.700
Ambient: 	Expected 	21.00 (°C)	Measured 	21.00 (°C)
Indium: 	Expected 	156.60 (°C)	Measured 	156.60 (°C)

	PID CALIBRATION:
Date:	12/16/2014 11:36:02 AM
Set Point =	 105.000 °C
PropBand = 	23.000
PropBandSP2 = 	13.000
Integral = 	2.100
Derivative = 	9.000
Calculated Integral = 	-57

	STIFFNESS INFINITY CALIBRATION RESULTS:
Date:	2/26/2016 12:19:32 PM
Stiffness Infinity = 	6130000.000

	INSTRUMENT INFOMATION CALIBRATION RESULTS:
Date:	2/26/2016 12:19:32 PM
DMA Serial Number = 	3066274
Vibrator Serial Number = 	22865
LVDT Serial Number = 	624.08
Analogue PCB Serial Number = 	890
Digital PCB Serial Number = 	895
PIC Code = 	603
FPGA Code = 	621
Instrument Type = 	2
AD Fitted = 	No

	PROFILE VALUES FOR THIS DATA:

Software Version	11.1.0.0488
Firmware Version	603.621
Load Temperature	22.0 °C
Go To Temp Rate	2.0 °C/min
Load Strain	0.010 mm
Load Frequency	1.0 Hz
Strain control window	0.02
Cooling Device
Automatic cryogenic control is 	Off
Automatic cryogenic control on temperature	50.0
Automatic cryogenic control off temperature	40.0
Number of averages	2
Broken sample threshold	0.0 %
Poisson's Ratio	0.35