File: GFBaking/em/1_g13_4.csv
,Time sec,Extension mm,Load kgf,Compressive stress MPa,Cycle Count ,Total Cycle Count ,Repetitions Count ,Marked Data ,PIP Count ,Compressive extension mm,Compressive strain %,Compressive load kgf,Displacement (Strain 1) mm,True strain %,Corrected Position mm,True stress Pa,Elastic Modulus
0,0.0,-0.000133333,-0.02556578,0.0006092539,0,0,0,0,0,0.0,0.0,0.02556578,0,0.0,-0.000133333,609.2539,inf
22,1.1,-0.1833329,-0.04671824,0.001113335,0,0,0,0,0,0.1831995,0.8084711,0.04671824,0,0.8117569,-0.1833329,1104.334,183303
44,2.2,-0.3669325,-0.06470456,0.001541964,0,0,0,0,0,0.3667991,1.618708,0.06470456,0,1.631952,-0.3669325,1517.004,126798
66,3.3,-0.5502653,-0.08276888,0.001972451,0,0,0,0,0,0.550132,2.427767,0.08276887,0,2.457723,-0.5502653,1924.565,108145
88,4.4,-0.7333315,-0.1007724,0.00240149,0,0,0,0,0,0.7331982,3.23565,0.1007724,0,3.289154,-0.7333315,2323.786,98793.3
110,5.5,-0.9169311,-0.1182402,0.002817763,0,0,0,0,0,0.9167978,4.045886,0.1182402,0,4.130009,-0.9169311,2703.759,92704.1
132,6.6,-1.100131,-0.1353668,0.003225904,0,0,0,0,0,1.099997,4.854357,0.1353668,0,4.976138,-1.100131,3069.307,88456.1
154,7.7,-1.283464,-0.1515451,0.003611445,0,0,0,0,0,1.28333,5.663417,0.1515451,0,5.830113,-1.283464,3406.914,84881.1
176,8.8,-1.467063,-0.1661688,0.00395994,0,0,0,0,0,1.46693,6.473653,0.1661688,0,6.6927,-1.467063,3703.587,81423.1
198,9.900001,-1.649996,-0.1805976,0.004303791,0,0,0,0,0,1.649863,7.280947,0.1805976,0,7.55962,-1.649996,3990.434,78681.3
220,11.0,-1.833596,-0.1945524,0.004636346,0,0,0,0,0,1.833462,8.091184,0.1945524,0,8.437323,-1.833596,4261.211,76273.2
242,12.1,-2.016795,-0.2075623,0.004946383,0,0,0,0,0,2.016662,8.899654,0.2075623,0,9.320859,-2.016795,4506.172,73981.4
264,13.2,-2.200128,-0.218966,0.005218143,0,0,0,0,0,2.199995,9.708714,0.218966,0,10.21292,-2.200128,4711.528,71542.2
286,14.3,-2.383728,-0.2300167,0.005481489,0,0,0,0,0,2.383594,10.51895,0.2300167,0,11.11433,-2.383728,4904.894,69364
308,15.4,-2.566927,-0.2398275,0.00571529,0,0,0,0,0,2.566794,11.32742,0.2398275,0,12.02195,-2.566927,5067.894,67160.7
330,16.5,-2.75026,-0.248225,0.005915409,0,0,0,0,0,2.750127,12.13648,0.248225,0,12.93855,-2.75026,5197.487,64878.4
352,17.6,-2.933326,-0.2559571,0.00609967,0,0,0,0,0,2.933193,12.94436,0.2559571,0,13.86228,-2.933326,5310.107,62724
374,18.7,-3.116792,-0.2628824,0.006264707,0,0,0,0,0,3.116659,13.75401,0.2628824,0,14.79666,-3.116792,5403.058,60628.9
396,19.8,-3.300259,-0.2693461,0.006418742,0,0,0,0,0,3.300125,14.56366,0.2693461,0,15.73986,-3.300259,5483.938,58666.2
418,20.9,-3.483592,-0.2748088,0.006548922,0,0,0,0,0,3.483458,15.37272,0.2748088,0,16.69135,-3.483592,5542.174,56705.8
440,22.0,-3.666658,-0.2797103,0.00666573,0,0,0,0,0,3.666524,16.1806,0.2797103,0,17.65057,-3.666658,5587.175,54835.4
462,23.1,-3.850124,-0.2844946,0.006779743,0,0,0,0,0,3.849991,16.99025,0.2844946,0,18.62121,-3.850124,5627.848,53115.5
484,24.2,-4.033323,-0.2877216,0.006856645,0,0,0,0,0,4.03319,17.79872,0.2877216,0,19.59993,-4.033323,5636.249,51278
506,25.3,-4.217057,-0.2904068,0.006920635,0,0,0,0,0,4.216923,18.60955,0.2904068,0,20.59122,-4.217057,5632.736,49501.5
528,26.4,-4.400389,-0.2915952,0.006948957,0,0,0,0,0,4.400256,19.41861,0.2915953,0,21.59024,-4.400389,5599.567,47633.2
550,27.5,-4.583322,-0.2920564,0.006959948,0,0,0,0,0,4.583189,20.2259,0.2920564,0,22.59713,-4.583322,5552.236,45804.3
572,28.6,-4.766655,-0.2915271,0.006947333,0,0,0,0,0,4.766522,21.03496,0.2915271,0,23.6165,-4.766655,5485.965,43962.7
594,29.7,-4.949988,-0.2894206,0.006897133,0,0,0,0,0,4.949855,21.84402,0.2894206,0,24.64636,-4.949988,5390.522,42028.5
616,30.8,-5.133454,-0.2894532,0.006897911,0,0,0,0,0,5.133321,22.65367,0.2894532,0,25.6877,-5.133454,5335.281,40531
638,31.9,-5.317054,-0.2882778,0.0068699,0,0,0,0,0,5.316921,23.4639,0.2882778,0,26.74077,-5.317054,5257.953,38972.5
660,33.0,-5.50012,-0.2879651,0.006862448,0,0,0,0,0,5.499987,24.27179,0.2879651,0,27.80194,-5.50012,5196.809,37634.4
682,34.1,-5.683453,-0.2866373,0.006830806,0,0,0,0,0,5.68332,25.08084,0.2866373,0,28.87606,-5.683453,5117.582,36252.5
704,35.2,-5.866919,-0.2875028,0.00685143,0,0,0,0,0,5.866786,25.89049,0.2875028,0,29.96264,-5.866919,5077.561,35224.8
726,36.3,-6.050119,-0.289033,0.006887898,0,0,0,0,0,6.049985,26.69897,0.289033,0,31.05955,-6.050119,5048.9,34340
748,37.4,-6.233585,-0.2893427,0.006895279,0,0,0,0,0,6.233451,27.50861,0.2893427,0,32.17024,-6.233585,4998.483,33365
770,38.5,-6.416918,-0.2923545,0.006967052,0,0,0,0,0,6.416785,28.31767,0.2923545,0,33.29259,-6.416918,4994.145,32749.1
792,39.6,-6.59985,-0.2940205,0.007006754,0,0,0,0,0,6.599717,29.12497,0.2940205,0,34.42519,-6.59985,4966.039,32022.8
814,40.7,-6.783584,-0.295916,0.007051925,0,0,0,0,0,6.78345,29.93579,0.295916,0,35.57581,-6.783584,4940.876,31356.3
836,41.8,-6.966783,-0.2961079,0.007056498,0,0,0,0,0,6.96665,30.74426,0.2961079,0,36.73642,-6.966783,4887.03,30551.6
858,42.9,-7.150116,-0.2956374,0.007045286,0,0,0,0,0,7.149983,31.55332,0.2956374,0,37.91152,-7.150116,4822.264,29720.9
880,44.0,-7.333715,-0.2957316,0.00704753,0,0,0,0,0,7.333582,32.36356,0.2957316,0,39.10232,-7.333715,4766.699,28986
902,45.1,-7.516915,-0.2959184,0.007051982,0,0,0,0,0,7.516781,33.17203,0.2959184,0,40.30484,-7.516915,4712.696,28297.5
924,46.2,-7.700115,-0.2978483,0.007097973,0,0,0,0,0,7.699981,33.9805,0.2978483,0,41.522,-7.700115,4686.047,27804.4
946,47.3,-7.883314,-0.3008082,0.00716851,0,0,0,0,0,7.883181,34.78897,0.3008082,0,42.75416,-7.883314,4674.659,27428.1
968,48.4,-8.066647,-0.3053374,0.007276445,0,0,0,0,0,8.066514,35.59803,0.3053374,0,44.0026,-8.066647,4686.174,27208.3
990,49.5,-8.250247,-0.3091121,0.007366399,0,0,0,0,0,8.250113,36.40827,0.3091121,0,45.26867,-8.250247,4684.421,26931.7
1012,50.6,-8.433713,-0.3141803,0.007487178,0,0,0,0,0,8.433579,37.21791,0.3141803,0,46.55004,-8.433713,4700.606,26777.8
1034,51.7,-8.616646,-0.3189293,0.007600351,0,0,0,0,0,8.616512,38.02521,0.3189293,0,47.84425,-8.616646,4710.302,26605.4
1056,52.8,-8.800112,-0.32566,0.007760748,0,0,0,0,0,8.799978,38.83486,0.32566,0,49.15927,-8.800112,4746.873,26600.5
1078,53.9,-8.983311,-0.3321846,0.007916234,0,0,0,0,0,8.983178,39.64333,0.3321846,0,50.48987,-8.983311,4777.976,26580.1
1100,55.0,-9.167044,-0.3388502,0.008075084,0,0,0,0,0,9.166911,40.45415,0.3388503,0,51.84236,-9.167044,4808.377,26570
1122,56.1,-9.350377,-0.3463809,0.008254545,0,0,0,0,0,9.350243,41.26321,0.3463809,0,53.21039,-9.350377,4848.455,26628
1144,57.2,-9.53331,-0.3531584,0.008416059,0,0,0,0,0,9.533177,42.07051,0.3531584,0,54.59436,-9.53331,4875.38,26628
1166,58.3,-9.716776,-0.3591917,0.008559837,0,0,0,0,0,9.716643,42.88015,0.3591917,0,56.00186,-9.716776,4889.365,26571.6
1188,59.4,-9.899976,-0.3633201,0.00865822,0,0,0,0,0,9.899842,43.68863,0.3633201,0,57.42736,-9.899976,4875.563,26379.6
1210,60.5,-10.08371,-0.3684107,0.008779534,0,0,0,0,0,10.08358,44.49945,0.3684107,0,58.87773,-10.08371,4872.69,26261.8
1232,61.6,-10.26704,-0.3759402,0.008958968,0,0,0,0,0,10.26691,45.30851,0.3759402,0,60.34621,-10.26704,4899.793,26320
1254,62.7,-10.44997,-0.3823413,0.009111512,0,0,0,0,0,10.44984,46.11581,0.3823413,0,61.8333,-10.44997,4909.665,26299.6
1276,63.8,-10.63357,-0.3892695,0.009276616,0,0,0,0,0,10.63344,46.92604,0.3892695,0,63.34838,-10.63357,4923.468,26313.8
1298,64.9,-10.81664,-0.3974051,0.009470495,0,0,0,0,0,10.81651,47.73392,0.3974051,0,64.88226,-10.81664,4949.857,26409.1
1320,66.0,-11.00011,-0.4060392,0.009676253,0,0,0,0,0,10.99997,48.54357,0.4060392,0,66.44347,-11.00011,4979.055,26532.8
1342,67.10001,-11.18357,-0.4153618,0.009898419,0,0,0,0,0,11.18344,49.35322,0.4153618,0,68.02945,-11.18357,5013.23,26696.8
1364,68.20001,-11.36677,-0.4244439,0.01011485,0,0,0,0,0,11.36664,50.16169,0.424444,0,69.63863,-11.36677,5041.071,26840.8
1386,69.3,-11.55011,-0.4339538,0.01034148,0,0,0,0,0,11.54997,50.97075,0.4339538,0,71.27531,-11.55011,5070.35,27006.6
1408,70.4,-11.73357,-0.4444991,0.01059278,0,0,0,0,0,11.73344,51.7804,0.4444991,0,72.94045,-11.73357,5107.798,27230.3
1430,71.5,-11.91664,-0.4568875,0.01088801,0,0,0,0,0,11.9165,52.58828,0.4568875,0,74.63007,-11.91664,5162.192,27559.3
1452,72.60001,-12.10024,-0.4714464,0.01123496,0,0,0,0,0,12.1001,53.39852,0.4714464,0,76.35378,-12.10024,5235.658,28006
1474,73.70001,-12.28357,-0.4871007,0.01160801,0,0,0,0,0,12.28344,54.20758,0.4871007,0,78.10515,-12.28357,5315.591,28504
1496,74.8,-12.46664,-0.5033961,0.01199635,0,0,0,0,0,12.4665,55.01546,0.5033962,0,79.88513,-12.46664,5396.503,29025
1518,75.9,-12.65024,-0.5182792,0.01235102,0,0,0,0,0,12.6501,55.8257,0.5182792,0,81.70269,-12.65024,5455.98,29449.4
1540,77.0,-12.83344,-0.5327835,0.01269667,0,0,0,0,0,12.8333,56.63417,0.5327834,0,83.54983,-12.83344,5506.018,29841.4
1562,78.10001,-13.01663,-0.5493751,0.01309207,0,0,0,0,0,13.0165,57.44263,0.5493751,0,85.43173,-13.01663,5571.639,30337.7
1584,79.20001,-13.20037,-0.5674039,0.01352171,0,0,0,0,0,13.20023,58.25346,0.5674039,0,87.35537,-13.20037,5644.845,30897.1
1606,80.3,-13.38343,-0.5864975,0.01397672,0,0,0,0,0,13.3833,59.06134,0.5864974,0,89.30955,-13.38343,5721.882,31500
1628,81.4,-13.56677,-0.6056264,0.01443258,0,0,0,0,0,13.56663,59.8704,0.6056265,0,91.30561,-13.56677,5791.737,32087.8
1650,82.50001,-13.7501,-0.6243966,0.01487989,0,0,0,0,0,13.74997,60.67946,0.6243966,0,93.34232,-13.7501,5850.853,32641.2
1672,83.60001,-13.93343,-0.6412115,0.0152806,0,0,0,0,0,13.9333,61.48852,0.6412115,0,95.42139,-13.93343,5884.786,33079.2
1694,84.70001,-14.11703,-0.6604608,0.01573933,0,0,0,0,0,14.1169,62.29876,0.6604608,0,97.54772,-14.11703,5933.923,33629.1
1716,85.8,-14.3001,-0.6771215,0.01613637,0,0,0,0,0,14.29997,63.10664,0.6771215,0,99.71387,-14.3001,5953.248,34036
1738,86.9,-14.48356,-0.6932099,0.01651977,0,0,0,0,0,14.48343,63.91629,0.6932099,0,101.9329,-14.48356,5960.945,34403.3
1760,88.00001,-14.66663,-0.7108422,0.01693996,0,0,0,0,0,14.6665,64.72417,0.7108422,0,104.1972,-14.66663,5975.712,34838.1
1782,89.10001,-14.8501,-0.730451,0.01740726,0,0,0,0,0,14.84996,65.53382,0.730451,0,106.5192,-14.8501,5999.616,35356.8
1804,90.20001,-15.03356,-0.7508266,0.01789282,0,0,0,0,0,15.03343,66.34347,0.7508266,0,108.8963,-15.03356,6022.104,35899.5
1805,90.246,-15.0413,-0.7518175,0.01791644,0,0,0,0,0,15.04116,66.37759,0.7518175,0,108.9978,-15.0413,6023.937,35928.4