File: GFBaking/em/1_g13_3.csv
,Time sec,Extension mm,Load kgf,Compressive stress MPa,Cycle Count ,Total Cycle Count ,Repetitions Count ,Marked Data ,PIP Count ,Compressive extension mm,Compressive strain %,Compressive load kgf,Displacement (Strain 1) mm,True strain %,Corrected Position mm,True stress Pa,Elastic Modulus
0,0.0,0.0,-0.01047145,0.000270142,0,0,0,0,0,0.0,0.0,0.01047145,0,0.0,0.0,270.142,inf
22,1.1,-0.1831995,-0.01576644,0.0004067421,0,0,0,0,0,0.1831995,0.8327252,0.01576644,0,0.8362117,-0.1831995,403.3551,61861
44,2.2,-0.3667991,-0.01963788,0.0005066175,0,0,0,0,0,0.3667991,1.667269,0.01963788,0,1.681324,-0.3667991,498.1708,38483.4
66,3.3,-0.5502653,-0.02355766,0.0006077396,0,0,0,0,0,0.5502653,2.501206,0.02355766,0,2.533018,-0.5502653,592.5387,30772.8
88,4.4,-0.7337315,-0.02812258,0.0007255052,0,0,0,0,0,0.7337316,3.335143,0.02812258,0,3.392028,-0.7337315,701.3086,27550.2
110,5.5,-0.9169311,-0.03233634,0.0008342118,0,0,0,0,0,0.9169311,4.167869,0.03233634,0,4.257216,-0.9169311,799.4429,25349
132,6.6,-1.099997,-0.03680102,0.0009493913,0,0,0,0,0,1.099997,4.999988,0.03680102,0,5.129317,-1.099997,901.9219,24047.8
154,7.7,-1.283464,-0.0410065,0.001057884,0,0,0,0,0,1.283464,5.833925,0.0410065,0,6.011021,-1.283464,996.1681,22965.5
176,8.8,-1.466796,-0.04535216,0.001169993,0,0,0,0,0,1.466796,6.667256,0.04535216,0,6.899919,-1.466796,1091.987,22224.7
198,9.900001,-1.650263,-0.04969019,0.001281906,0,0,0,0,0,1.650263,7.501194,0.04969019,0,7.797445,-1.650263,1185.748,21643.4
220,11.0,-1.833729,-0.05353778,0.001381166,0,0,0,0,0,1.833729,8.335132,0.05353778,0,8.7031,-1.833729,1266.044,20986.1
242,12.1,-2.016662,-0.0572631,0.001477271,0,0,0,0,0,2.016662,9.166644,0.0572631,0,9.614361,-2.016662,1341.855,20410.3
264,13.2,-2.200128,-0.06169324,0.00159156,0,0,0,0,0,2.200128,10.00058,0.06169324,0,10.5367,-2.200128,1432.395,20155.7
286,14.3,-2.383728,-0.06549486,0.001689634,0,0,0,0,0,2.383728,10.83512,0.06549487,0,11.4683,-2.383728,1506.56,19749.6
308,15.4,-2.566794,-0.07010649,0.001808605,0,0,0,0,0,2.566794,11.66724,0.07010649,0,12.40592,-2.566794,1597.59,19632.5
330,16.5,-2.75026,-0.07503737,0.001935811,0,0,0,0,0,2.75026,12.50118,0.07503737,0,13.35449,-2.75026,1693.812,19611.5
352,17.6,-2.933593,-0.07935387,0.002047168,0,0,0,0,0,2.933593,13.33451,0.07935387,0,14.31145,-2.933593,1774.188,19443.5
374,18.7,-3.116659,-0.08263059,0.002131701,0,0,0,0,0,3.116659,14.16663,0.08263059,0,15.27624,-3.116659,1829.711,19057.2
396,19.8,-3.300392,-0.08573011,0.002211662,0,0,0,0,0,3.300392,15.00178,0.08573011,0,16.25399,-3.300392,1879.874,18671.3
418,20.9,-3.483592,-0.08959853,0.00231146,0,0,0,0,0,3.483592,15.83451,0.08959853,0,17.23852,-3.483592,1945.451,18487.6
440,22.0,-3.666924,-0.09277978,0.002393529,0,0,0,0,0,3.666924,16.66784,0.09277978,0,18.23356,-3.666924,1994.58,18186.9
462,23.1,-3.850391,-0.09537803,0.002460559,0,0,0,0,0,3.850391,17.50178,0.09537803,0,19.23934,-3.850391,2029.918,17805.4
484,24.2,-4.033457,-0.0990256,0.002554659,0,0,0,0,0,4.033457,18.33389,0.0990256,0,20.25311,-4.033457,2086.29,17647.3
506,25.3,-4.21679,-0.1024252,0.002642362,0,0,0,0,0,4.21679,19.16723,0.1024252,0,21.27877,-4.21679,2135.894,17459.5
528,26.4,-4.400122,-0.1062392,0.002740755,0,0,0,0,0,4.400123,20.00056,0.1062392,0,22.31505,-4.400122,2192.589,17355.1
550,27.5,-4.583589,-0.1096492,0.002828727,0,0,0,0,0,4.583589,20.83449,0.1096492,0,23.36295,-4.583589,2239.376,17195.2
572,28.6,-4.766922,-0.1126334,0.002905713,0,0,0,0,0,4.766922,21.66783,0.1126334,0,24.42118,-4.766922,2276.108,16983.9
594,29.7,-4.950255,-0.1152517,0.00297326,0,0,0,0,0,4.950255,22.50116,0.1152517,0,25.49072,-4.950255,2304.242,16735.1
616,30.8,-5.133187,-0.1177113,0.003036712,0,0,0,0,0,5.133187,23.33267,0.1177113,0,26.56945,-5.133187,2328.166,16483.1
638,31.9,-5.316787,-0.1203414,0.003104564,0,0,0,0,0,5.316787,24.16721,0.1203414,0,27.66394,-5.316787,2354.277,16269.5
660,33.0,-5.500253,-0.1231301,0.003176506,0,0,0,0,0,5.500253,25.00115,0.1231301,0,28.76974,-5.500253,2382.343,16091.2
682,34.1,-5.68372,-0.1247265,0.00321769,0,0,0,0,0,5.68372,25.83509,0.1247265,0,29.8879,-5.68372,2386.397,15773.7
704,35.2,-5.866919,-0.1276506,0.003293124,0,0,0,0,0,5.866919,26.66781,0.1276506,0,31.01706,-5.866919,2414.92,15639.4
726,36.3,-6.049852,-0.1306744,0.003371133,0,0,0,0,0,6.049852,27.49933,0.1306744,0,32.15743,-6.049852,2444.094,15525.8
748,37.4,-6.233585,-0.1335218,0.003444592,0,0,0,0,0,6.233584,28.33447,0.1335218,0,33.31604,-6.233585,2468.585,15396.5
770,38.5,-6.416918,-0.1367348,0.00352748,0,0,0,0,0,6.416918,29.16781,0.1367348,0,34.48566,-6.416918,2498.592,15316.5
792,39.6,-6.600384,-0.1397354,0.003604889,0,0,0,0,0,6.600384,30.00174,0.1397354,0,35.66999,-6.600384,2523.36,15217.5
814,40.7,-6.783584,-0.1429624,0.00368814,0,0,0,0,0,6.783584,30.83447,0.1429624,0,36.86676,-6.783584,2550.921,15148.5
836,41.8,-6.96665,-0.1470767,0.003794281,0,0,0,0,0,6.96665,31.66659,0.1470767,0,38.07714,-6.96665,2592.761,15174.9
858,42.9,-7.150249,-0.1505579,0.003884088,0,0,0,0,0,7.150249,32.50113,0.1505579,0,39.30594,-7.150249,2621.716,15135.3
880,44.0,-7.333449,-0.1534407,0.003958457,0,0,0,0,0,7.333449,33.33386,0.1534407,0,40.5473,-7.333449,2638.951,15039.7
902,45.1,-7.516915,-0.1544409,0.003984261,0,0,0,0,0,7.516915,34.1678,0.1544409,0,41.80611,-7.516915,2622.927,14768.3
924,46.2,-7.700248,-0.1566069,0.00404014,0,0,0,0,0,7.700248,35.00113,0.1566069,0,43.08002,-7.700248,2626.045,14618.9
946,47.3,-7.883314,-0.1585774,0.004090974,0,0,0,0,0,7.883314,35.83324,0.1585774,0,44.3685,-7.883314,2625.045,14459.1
968,48.4,-8.066781,-0.160295,0.004135285,0,0,0,0,0,8.066781,36.66719,0.160295,0,45.67666,-8.066781,2618.993,14283.2
990,49.5,-8.250513,-0.1624903,0.004191919,0,0,0,0,0,8.250513,37.50233,0.1624903,0,47.00409,-8.250513,2619.852,14156.4
1012,50.6,-8.433313,-0.1626671,0.004196481,0,0,0,0,0,8.433313,38.33324,0.1626671,0,48.34252,-8.433313,2587.834,13864.6
1034,51.7,-8.617045,-0.1630837,0.004207228,0,0,0,0,0,8.617045,39.16839,0.1630837,0,49.70606,-8.617045,2559.324,13603.8
1056,52.8,-8.800245,-0.1653543,0.004265806,0,0,0,0,0,8.800245,40.00111,0.1653544,0,51.08442,-8.800245,2559.436,13506
1078,53.9,-8.983445,-0.1676133,0.004324083,0,0,0,0,0,8.983445,40.83384,0.1676133,0,52.48205,-8.983445,2558.394,13411.4
1100,55.0,-9.167044,-0.1702357,0.004391735,0,0,0,0,0,9.167045,41.66838,0.1702357,0,53.90259,-9.167044,2561.77,13348.4
1122,56.1,-9.350244,-0.1735426,0.004477045,0,0,0,0,0,9.350244,42.50111,0.1735426,0,55.34045,-9.350244,2574.252,13341.1
1144,57.2,-9.533443,-0.1774117,0.004576861,0,0,0,0,0,9.533443,43.33384,0.1774117,0,56.79929,-9.533443,2593.532,13376.4
1166,58.3,-9.717043,-0.1819563,0.004694103,0,0,0,0,0,9.717044,44.16838,0.1819563,0,58.28298,-9.717043,2620.794,13459.9
1188,59.4,-9.900109,-0.1867077,0.004816679,0,0,0,0,0,9.900109,45.0005,0.1867077,0,59.7846,-9.900109,2649.15,13555.9
1210,60.5,-10.08344,-0.1924284,0.004964261,0,0,0,0,0,10.08344,45.83383,0.1924284,0,61.31136,-10.08344,2688.95,13717.3
1232,61.6,-10.26678,-0.1976842,0.00509985,0,0,0,0,0,10.26678,46.66716,0.1976842,0,62.86179,-10.26678,2719.895,13840.3
1254,62.7,-10.45024,-0.2028496,0.005233107,0,0,0,0,0,10.45024,47.50109,0.2028496,0,64.43779,-10.45024,2747.324,13952.6
1276,63.8,-10.63384,-0.2076702,0.005357469,0,0,0,0,0,10.63384,48.33564,0.2076702,0,66.0402,-10.63384,2767.902,14037.6
1298,64.9,-10.81691,-0.2117012,0.005461459,0,0,0,0,0,10.81691,49.16776,0.2117012,0,67.66393,-10.81691,2776.182,14067.8
1320,66.0,-11.00011,-0.2151299,0.005549912,0,0,0,0,0,11.00011,50.00048,0.2151299,0,69.31568,-11.00011,2774.93,14057.6
1342,67.10001,-11.18344,-0.2192662,0.005656621,0,0,0,0,0,11.18344,50.83382,0.2192662,0,70.99641,-11.18344,2781.145,14093
1364,68.20001,-11.36691,-0.2226205,0.005743156,0,0,0,0,0,11.36691,51.66775,0.2226205,0,72.70712,-11.36691,2775.796,14077.6
1386,69.3,-11.55037,-0.2251408,0.005808175,0,0,0,0,0,11.55037,52.50169,0.2251408,0,74.4476,-11.55037,2758.785,14010.9
1408,70.4,-11.73357,-0.2302986,0.005941235,0,0,0,0,0,11.73357,53.33442,0.2302986,0,76.21632,-11.73357,2772.512,14108.1
1430,71.5,-11.91664,-0.2385766,0.00615479,0,0,0,0,0,11.91664,54.16653,0.2385766,0,78.01557,-11.91664,2820.953,14390.7
1452,72.60001,-12.10024,-0.248144,0.006401611,0,0,0,0,0,12.10024,55.00108,0.248144,0,79.85317,-12.10024,2880.656,14740.7
1474,73.70001,-12.28357,-0.2586413,0.00667242,0,0,0,0,0,12.28357,55.83441,0.2586413,0,81.72242,-12.28357,2946.914,15134.9
1496,74.8,-12.46704,-0.2689297,0.006937838,0,0,0,0,0,12.46704,56.66835,0.2689297,0,83.62868,-12.46704,3006.28,15505.4
1518,75.9,-12.65024,-0.2800008,0.007223451,0,0,0,0,0,12.65024,57.50107,0.2800008,0,85.56913,-12.65024,3069.889,15909.9
1540,77.0,-12.83344,-0.2917991,0.007527824,0,0,0,0,0,12.83344,58.3338,0.2917991,0,87.54798,-12.83344,3136.558,16343.6
1562,78.10001,-13.0169,-0.3028604,0.007813181,0,0,0,0,0,13.0169,59.16774,0.3028603,0,89.56976,-13.0169,3190.299,16724.1
1584,79.20001,-13.2001,-0.3142485,0.008106971,0,0,0,0,0,13.2001,60.00046,0.3142485,0,91.63023,-13.2001,3242.751,17112.1
1606,80.3,-13.38357,-0.3265715,0.008424881,0,0,0,0,0,13.38357,60.8344,0.3265715,0,93.73713,-13.38357,3299.655,17539.4
1628,81.4,-13.5669,-0.3397336,0.008764436,0,0,0,0,0,13.5669,61.66773,0.3397336,0,95.8878,-13.5669,3359.607,17999.7
1650,82.50001,-13.74997,-0.3528158,0.009101929,0,0,0,0,0,13.74997,62.49985,0.3528158,0,98.08252,-13.74997,3413.237,18443.9
1672,83.60001,-13.93343,-0.3676536,0.009484714,0,0,0,0,0,13.93343,63.33378,0.3676535,0,100.3314,-13.93343,3477.686,18966.5
1694,84.70001,-14.11703,-0.3839257,0.009904503,0,0,0,0,0,14.11703,64.16833,0.3839257,0,102.6338,-14.11703,3548.949,19548.4
1716,85.8,-14.3001,-0.4034567,0.01040836,0,0,0,0,0,14.3001,65.00045,0.4034567,0,104.9835,-14.3001,3642.88,20279.9
1738,86.9,-14.4837,-0.4290532,0.0110687,0,0,0,0,0,14.4837,65.83499,0.4290532,0,107.3968,-14.4837,3781.622,21293.1
1760,88.00001,-14.66676,-0.4560782,0.01176589,0,0,0,0,0,14.66676,66.66711,0.4560782,0,109.8625,-14.66676,3921.911,22351.8
1782,89.10001,-14.84996,-0.4839698,0.01248543,0,0,0,0,0,14.84996,67.49983,0.4839697,0,112.3925,-14.84996,4057.787,23426.1
1803,90.106,-15.0181,-0.5116177,0.0131987,0,0,0,0,0,15.0181,68.26408,0.5116177,0,114.7721,-15.0181,4188.728,24487.1