File: GFBaking/em/1_g13_6.csv
,Time sec,Extension mm,Load kgf,Compressive stress MPa,Cycle Count ,Total Cycle Count ,Repetitions Count ,Marked Data ,PIP Count ,Compressive extension mm,Compressive strain %,Compressive load kgf,Displacement (Strain 1) mm,True strain %,Corrected Position mm,True stress Pa,Elastic Modulus
0,0.0,0.0,-0.01027031,0.0002616129,0,0,0,0,0,0.0,0.0,0.01027031,0,0.0,0.0,261.6129,inf
22,1.1,-0.1834662,-0.02103453,0.000535807,0,0,0,0,0,0.1834662,0.7966402,0.02103453,0,0.7998303,-0.1834662,531.5385,82410.8
44,2.2,-0.3669325,-0.03217127,0.0008194903,0,0,0,0,0,0.3669325,1.59328,0.03217127,0,1.606109,-0.3669325,806.4335,63021.6
66,3.3,-0.550132,-0.04681661,0.001192547,0,0,0,0,0,0.550132,2.388762,0.04681661,0,2.417756,-0.550132,1164.06,61170.3
88,4.4,-0.7334649,-0.06456882,0.001644744,0,0,0,0,0,0.7334649,3.184824,0.06456883,0,3.236642,-0.7334649,1592.362,63277.7
110,5.5,-0.9167978,-0.08212763,0.002092015,0,0,0,0,0,0.9167978,3.980885,0.08212762,0,4.06229,-0.9167978,2008.734,64390.7
132,6.6,-1.100131,-0.1000458,0.00254844,0,0,0,0,0,1.100131,4.776946,0.1000458,0,4.894811,-1.100131,2426.702,65367.5
154,7.7,-1.283597,-0.1171451,0.002984006,0,0,0,0,0,1.283597,5.573586,0.1171451,0,5.734934,-1.283597,2817.69,65599.8
176,8.8,-1.46693,-0.1335533,0.003401968,0,0,0,0,0,1.46693,6.369648,0.1335533,0,6.581558,-1.46693,3185.275,65441.4
198,9.900001,-1.649863,-0.1488199,0.003790849,0,0,0,0,0,1.649863,7.163971,0.1488199,0,7.433538,-1.649863,3519.274,64836.6
220,11.0,-1.833329,-0.1631596,0.004156121,0,0,0,0,0,1.833329,7.960612,0.1631596,0,8.295357,-1.833329,3825.268,63970.5
242,12.1,-2.016795,-0.1763017,0.004490886,0,0,0,0,0,2.016795,8.757252,0.1763017,0,9.164667,-2.016795,4097.608,62835.1
264,13.2,-2.200261,-0.1870325,0.00476423,0,0,0,0,0,2.200261,9.553891,0.1870325,0,10.0416,-2.200261,4309.06,61101.3
286,14.3,-2.383594,-0.1977986,0.00503847,0,0,0,0,0,2.383594,10.34995,0.1977986,0,10.92565,-2.383594,4516.991,59648.3
308,15.4,-2.566527,-0.2077324,0.005291513,0,0,0,0,0,2.566527,11.14428,0.2077324,0,11.81562,-2.566527,4701.812,58178.9
330,16.5,-2.750127,-0.2157027,0.005494537,0,0,0,0,0,2.750127,11.9415,0.2157027,0,12.71688,-2.750127,4838.407,56378.1
352,17.6,-2.93346,-0.222674,0.005672115,0,0,0,0,0,2.93346,12.73756,0.222674,0,13.625,-2.93346,4949.626,54562.8
374,18.7,-3.116926,-0.2264533,0.005768385,0,0,0,0,0,3.116926,13.5342,0.2264533,0,14.54212,-3.116926,4987.68,52222.7
396,19.8,-3.300392,-0.2291277,0.005836509,0,0,0,0,0,3.300392,14.33084,0.2291277,0,15.46773,-3.300392,5000.088,49902.2
418,20.9,-3.483458,-0.2313431,0.005892942,0,0,0,0,0,3.483458,15.12574,0.2313431,0,16.39993,-3.483458,5001.591,47736.8
440,22.0,-3.666791,-0.2335886,0.005950139,0,0,0,0,0,3.666791,15.9218,0.2335886,0,17.34229,-3.666791,5002.77,45790.2
462,23.1,-3.850257,-0.2363788,0.006021215,0,0,0,0,0,3.850257,16.71844,0.2363788,0,18.29431,-3.850257,5014.561,44129.2
484,24.2,-4.033457,-0.2392223,0.006093646,0,0,0,0,0,4.033457,17.51393,0.2392223,0,19.25407,-4.033457,5026.409,42631.6
506,25.3,-4.216923,-0.241947,0.00616305,0,0,0,0,0,4.216923,18.31056,0.241947,0,20.22455,-4.216923,5034.561,41241.3
528,26.4,-4.400122,-0.2447471,0.006234379,0,0,0,0,0,4.400123,19.10605,0.2447471,0,21.20311,-4.400122,5043.236,39981.6
550,27.5,-4.583322,-0.2481462,0.006320962,0,0,0,0,0,4.583323,19.90153,0.2481462,0,22.19134,-4.583322,5062.994,38916.6
572,28.6,-4.766922,-0.2519537,0.006417951,0,0,0,0,0,4.766922,20.69875,0.2519538,0,23.19163,-4.766922,5089.515,37991.8
594,29.7,-4.950122,-0.2548885,0.006492706,0,0,0,0,0,4.950121,21.49423,0.2548884,0,24.19981,-4.950122,5097.149,37011.9
616,30.8,-5.133454,-0.2585731,0.006586563,0,0,0,0,0,5.133454,22.29029,0.2585731,0,25.219,-5.133454,5118.399,36206
638,31.9,-5.317054,-0.2619943,0.006673712,0,0,0,0,0,5.317054,23.08751,0.2619943,0,26.25019,-5.317054,5132.918,35418.3
660,33.0,-5.50012,-0.264063,0.006726406,0,0,0,0,0,5.50012,23.88241,0.264063,0,27.28909,-5.50012,5119.978,34509.8
682,34.1,-5.683586,-0.2664572,0.006787394,0,0,0,0,0,5.683586,24.67905,0.2664572,0,28.34119,-5.683586,5112.329,33698.6
704,35.2,-5.866652,-0.2676092,0.006816739,0,0,0,0,0,5.866652,25.47396,0.2676092,0,29.40216,-5.866652,5080.246,32788.2
726,36.3,-6.050119,-0.2686334,0.006842826,0,0,0,0,0,6.050119,26.2706,0.2686334,0,30.47685,-6.050119,5045.175,31915.6
748,37.4,-6.233585,-0.2697386,0.00687098,0,0,0,0,0,6.233584,27.06724,0.2697386,0,31.56322,-6.233585,5011.195,31103.7
770,38.5,-6.416918,-0.2698671,0.006874252,0,0,0,0,0,6.416918,27.8633,0.2698671,0,32.66072,-6.416918,4958.859,30229.5
792,39.6,-6.600117,-0.2698043,0.006872653,0,0,0,0,0,6.600117,28.65878,0.2698043,0,33.76959,-6.600117,4903.034,29383.6
814,40.7,-6.78345,-0.2688652,0.006848731,0,0,0,0,0,6.78345,29.45484,0.2688652,0,34.89171,-6.78345,4831.448,28489.9
836,41.8,-6.96665,-0.2696185,0.006867921,0,0,0,0,0,6.96665,30.25032,0.2696185,0,36.02574,-6.96665,4790.353,27818.5
858,42.9,-7.150383,-0.2702234,0.006883328,0,0,0,0,0,7.150383,31.04812,0.2702234,0,37.17614,-7.150383,4746.184,27164.5
880,44.0,-7.333582,-0.2719478,0.006927254,0,0,0,0,0,7.333582,31.84361,0.2719478,0,38.33652,-7.333582,4721.367,26654.9
902,45.1,-7.516515,-0.2731735,0.006958477,0,0,0,0,0,7.516515,32.63793,0.2731735,0,39.50881,-7.516515,4687.374,26123.4
924,46.2,-7.700115,-0.275889,0.007027647,0,0,0,0,0,7.700114,33.43515,0.275889,0,40.69935,-7.700115,4677.943,25754
946,47.3,-7.883447,-0.2804248,0.007143187,0,0,0,0,0,7.883447,34.23121,0.2804248,0,41.90247,-7.883447,4697.988,25568.6
968,48.4,-8.066914,-0.285446,0.007271089,0,0,0,0,0,8.066914,35.02785,0.285446,0,43.12115,-8.066914,4724.183,25434.5
990,49.5,-8.250247,-0.2908912,0.007409793,0,0,0,0,0,8.250247,35.82391,0.2908912,0,44.35395,-8.250247,4755.316,25343.8
1012,50.6,-8.433313,-0.2966154,0.007555605,0,0,0,0,0,8.433313,36.61882,0.2966154,0,45.60031,-8.433313,4788.832,25281.5
1034,51.7,-8.616779,-0.3021498,0.007696581,0,0,0,0,0,8.616779,37.41545,0.3021498,0,46.86518,-8.616779,4816.87,25204.9
1056,52.8,-8.800112,-0.3065591,0.007808898,0,0,0,0,0,8.800112,38.21151,0.3065591,0,48.14532,-8.800112,4825.0,25039.9
1078,53.9,-8.983445,-0.3106721,0.007913669,0,0,0,0,0,8.983445,39.00758,0.3106721,0,49.44206,-8.983445,4826.738,24858
1100,55.0,-9.166911,-0.3141069,0.008001163,0,0,0,0,0,9.166911,39.80422,0.3141069,0,50.75679,-9.166911,4816.362,24629.8
1122,56.1,-9.349978,-0.3194857,0.008138175,0,0,0,0,0,9.349977,40.59912,0.3194857,0,52.08612,-9.349978,4834.148,24561.1
1144,57.2,-9.533443,-0.3259519,0.008302887,0,0,0,0,0,9.533443,41.39576,0.3259519,0,53.43631,-9.533443,4865.844,24576
1166,58.3,-9.716909,-0.3317154,0.008449699,0,0,0,0,0,9.716909,42.1924,0.3317154,0,54.80499,-9.716909,4884.568,24538.3
1188,59.4,-9.899976,-0.3373173,0.008592393,0,0,0,0,0,9.899976,42.9873,0.3373173,0,56.18962,-9.899976,4898.755,24491.3
1210,60.5,-10.08358,-0.3444177,0.008773261,0,0,0,0,0,10.08358,43.78452,0.3444177,0,57.59781,-10.08358,4931.93,24551.5
1232,61.6,-10.26691,-0.350164,0.008919635,0,0,0,0,0,10.26691,44.58059,0.350164,0,59.02402,-10.26691,4943.21,24515.4
1254,62.7,-10.44997,-0.3560287,0.009069024,0,0,0,0,0,10.44998,45.37549,0.3560286,0,60.46875,-10.44997,4953.91,24489.3
1276,63.8,-10.63357,-0.3657752,0.009317294,0,0,0,0,0,10.63357,46.1727,0.3657752,0,61.93895,-10.63357,5015.247,24725.4
1298,64.9,-10.81677,-0.3767793,0.0095976,0,0,0,0,0,10.81677,46.96819,0.3767793,0,63.42782,-10.81677,5089.781,25037.8
1320,66.0,-11.00011,-0.3870586,0.009859441,0,0,0,0,0,11.00011,47.76425,0.3870586,0,64.9403,-11.00011,5150.153,25292.2
1342,67.10001,-11.18357,-0.3978187,0.01013353,0,0,0,0,0,11.18357,48.56089,0.3978187,0,66.47714,-11.18357,5212.597,25568.9
1364,68.20001,-11.36677,-0.4077812,0.0103873,0,0,0,0,0,11.36677,49.35637,0.4077812,0,68.03568,-11.36677,5260.507,25786.8
1386,69.3,-11.55011,-0.4168625,0.01061863,0,0,0,0,0,11.55011,50.15243,0.4168625,0,69.62005,-11.55011,5293.128,25942.6
1408,70.4,-11.7333,-0.4244191,0.01081111,0,0,0,0,0,11.7333,50.94791,0.4244191,0,71.22875,-11.7333,5303.077,26000.5
1430,71.5,-11.91677,-0.4313477,0.01098761,0,0,0,0,0,11.91677,51.74455,0.4313477,0,72.86615,-11.91677,5302.118,26018.1
1452,72.60001,-12.10037,-0.4404582,0.01121968,0,0,0,0,0,12.10037,52.54177,0.4404582,0,74.53203,-12.10037,5324.659,26164.6
1474,73.70001,-12.2837,-0.4503257,0.01147103,0,0,0,0,0,12.2837,53.33783,0.4503257,0,76.22365,-12.2837,5352.63,26351.5
1496,74.8,-12.46677,-0.4616765,0.01176016,0,0,0,0,0,12.46677,54.13274,0.4616765,0,77.94186,-12.46677,5394.065,26619
1518,75.9,-12.6501,-0.473021,0.01204914,0,0,0,0,0,12.6501,54.9288,0.473021,0,79.69267,-12.6501,5430.691,26877.8
1540,77.0,-12.8333,-0.4840065,0.01232897,0,0,0,0,0,12.8333,55.72428,0.4840065,0,81.47338,-12.8333,5458.74,27109.4
1562,78.10001,-13.0169,-0.4951478,0.01261277,0,0,0,0,0,13.0169,56.5215,0.4951479,0,83.29037,-13.0169,5483.843,27342.3
1584,79.20001,-13.20023,-0.5054248,0.01287455,0,0,0,0,0,13.20023,57.31756,0.5054247,0,85.13826,-13.20023,5495.172,27522.1
1606,80.3,-13.3833,-0.5165241,0.01315728,0,0,0,0,0,13.3833,58.11246,0.5165241,0,87.01819,-13.3833,5511.261,27741.8
1628,81.4,-13.5669,-0.5282639,0.01345633,0,0,0,0,0,13.5669,58.90968,0.5282639,0,88.93977,-13.5669,5529.247,27988.4
1650,82.50001,-13.7501,-0.5374577,0.01369052,0,0,0,0,0,13.7501,59.70517,0.5374577,0,90.89469,-13.7501,5516.571,28096.1
1672,83.60001,-13.9337,-0.5481757,0.01396353,0,0,0,0,0,13.9337,60.50239,0.5481756,0,92.89299,-13.9337,5515.262,28278.8
1694,84.70001,-14.11703,-0.5609783,0.01428965,0,0,0,0,0,14.11703,61.29845,0.5609783,0,94.92905,-14.11703,5530.317,28563.4
1716,85.8,-14.29997,-0.5750082,0.01464703,0,0,0,0,0,14.29997,62.09277,0.5750082,0,97.00284,-14.29997,5552.284,28903.2
1738,86.9,-14.48343,-0.5908218,0.01504985,0,0,0,0,0,14.48343,62.88941,0.5908217,0,99.12678,-14.48343,5585.086,29321.9
1760,88.00001,-14.66676,-0.6088091,0.01550803,0,0,0,0,0,14.66676,63.68547,0.6088091,0,101.2952,-14.66676,5631.669,29836.9
1782,89.10001,-14.85023,-0.6291635,0.01602652,0,0,0,0,0,14.85023,64.48211,0.6291636,0,103.5134,-14.85023,5692.28,30453.5
1804,90.20001,-15.03356,-0.6546151,0.01667484,0,0,0,0,0,15.03356,65.27818,0.6546151,0,105.7802,-15.03356,5789.808,31299.1
1807,90.314,-15.05263,-0.6571267,0.01673881,0,0,0,0,0,15.05263,65.36096,0.6571267,0,106.0189,-15.05263,5798.164,31379.4