File: GFBaking/em/1_g13_8.csv
,Time sec,Extension mm,Load kgf,Compressive stress MPa,Cycle Count ,Total Cycle Count ,Repetitions Count ,Marked Data ,PIP Count ,Compressive extension mm,Compressive strain %,Compressive load kgf,Displacement (Strain 1) mm,True strain %,Corrected Position mm,True stress Pa,Elastic Modulus
0,0.0,-0.000133333,-0.02960821,0.0007708231,0,0,0,0,0,0.0,0.0,0.02960821,0,0.0,-0.000133333,770.8231,inf
22,1.1,-0.1835995,-0.04082322,0.001062796,0,0,0,0,0,0.1834662,0.8569183,0.04082322,0,0.860611,-0.1835995,1053.689,159941
44,2.2,-0.3670658,-0.04883817,0.001271458,0,0,0,0,0,0.3669324,1.713837,0.04883817,0,1.728693,-0.3670658,1249.667,95671.1
66,3.3,-0.5499987,-0.05572355,0.001450712,0,0,0,0,0,0.5498653,2.568264,0.05572354,0,2.60182,-0.5499987,1413.454,72843.3
88,4.4,-0.7333315,-0.06320448,0.001645472,0,0,0,0,0,0.7331982,3.42456,0.06320448,0,3.484572,-0.7333315,1589.122,61963.2
110,5.5,-0.9167978,-0.06941433,0.00180714,0,0,0,0,0,0.9166644,4.281478,0.06941433,0,4.375836,-0.9167978,1729.767,54431
132,6.6,-1.100131,-0.07656004,0.001993172,0,0,0,0,0,1.099997,5.137774,0.07656004,0,5.274459,-1.100131,1890.767,50028.6
154,7.7,-1.28373,-0.08244136,0.002146286,0,0,0,0,0,1.283597,5.995315,0.08244136,0,6.182557,-1.28373,2017.61,46166.2
176,8.8,-1.466796,-0.08819069,0.002295965,0,0,0,0,0,1.466663,6.850365,0.0881907,0,7.0963,-1.466796,2138.683,43221.5
198,9.900001,-1.649996,-0.09314096,0.002424841,0,0,0,0,0,1.649863,7.706038,0.09314096,0,8.019146,-1.649996,2237.982,40578.9
220,11.0,-1.833596,-0.09896905,0.00257657,0,0,0,0,0,1.833462,8.563579,0.09896906,0,8.95263,-1.833596,2355.924,38800.3
242,12.1,-2.016795,-0.1047872,0.002728041,0,0,0,0,0,2.016662,9.419251,0.1047872,0,9.892848,-2.016795,2471.08,37349.3
264,13.2,-2.200395,-0.1104548,0.00287559,0,0,0,0,0,2.200261,10.27679,0.1104548,0,10.84407,-2.200395,2580.072,36084.3
286,14.3,-2.383594,-0.115313,0.003002071,0,0,0,0,0,2.383461,11.13247,0.115313,0,11.80233,-2.383594,2667.866,34775.8
308,15.4,-2.566661,-0.1209307,0.003148322,0,0,0,0,0,2.566527,11.98752,0.1209307,0,12.76915,-2.566661,2770.916,33868.7
330,16.5,-2.75026,-0.125526,0.003267956,0,0,0,0,0,2.750127,12.84506,0.125526,0,13.74827,-2.75026,2848.185,32808.6
352,17.6,-2.93346,-0.1293336,0.003367084,0,0,0,0,0,2.933326,13.70073,0.1293336,0,14.7349,-2.93346,2905.769,31692.6
374,18.7,-3.116926,-0.1330397,0.003463568,0,0,0,0,0,3.116792,14.55765,0.1330397,0,15.73283,-3.116926,2959.354,30681.8
396,19.8,-3.300392,-0.1356704,0.003532057,0,0,0,0,0,3.300259,15.41457,0.1356704,0,16.74081,-3.300392,2987.605,29549.1
418,20.9,-3.483458,-0.1370905,0.003569028,0,0,0,0,0,3.483325,16.26962,0.1370905,0,17.75683,-3.483458,2988.361,28289.2
440,22.0,-3.666791,-0.1379076,0.003590301,0,0,0,0,0,3.666658,17.12591,0.1379076,0,18.78477,-3.666791,2975.429,27034.9
462,23.1,-3.849991,-0.1373004,0.003574492,0,0,0,0,0,3.849857,17.98158,0.1373004,0,19.82264,-3.849991,2931.742,25635.1
484,24.2,-4.033457,-0.1377161,0.003585315,0,0,0,0,0,4.033324,18.8385,0.1377161,0,20.87292,-4.033457,2909.896,24543.1
506,25.3,-4.217057,-0.1367626,0.003560492,0,0,0,0,0,4.216923,19.69604,0.1367626,0,21.93513,-4.217057,2859.216,23312
528,26.4,-4.400389,-0.1361631,0.003544885,0,0,0,0,0,4.400256,20.55234,0.1361631,0,23.00718,-4.400389,2816.328,22242.8
550,27.5,-4.583456,-0.1370771,0.003568679,0,0,0,0,0,4.583323,21.40739,0.1370771,0,24.08925,-4.583456,2804.718,21497.7
572,28.6,-4.766788,-0.1386627,0.003609958,0,0,0,0,0,4.766655,22.26369,0.1386627,0,25.18477,-4.766788,2806.248,20910
594,29.7,-4.949988,-0.1406883,0.003662693,0,0,0,0,0,4.949855,23.11936,0.1406883,0,26.29161,-4.949988,2815.902,20430.2
616,30.8,-5.133721,-0.142922,0.003720846,0,0,0,0,0,5.133588,23.97752,0.142922,0,27.41412,-5.133721,2828.679,20011.8
638,31.9,-5.316921,-0.1441045,0.003751631,0,0,0,0,0,5.316787,24.8332,0.1441045,0,28.54605,-5.316921,2819.981,19482.1
660,33.0,-5.499853,-0.1468803,0.003823897,0,0,0,0,0,5.49972,25.68762,0.1468803,0,29.68927,-5.499853,2841.629,19196.9
682,34.1,-5.683586,-0.1505382,0.003919126,0,0,0,0,0,5.683453,26.54579,0.1505382,0,30.85079,-5.683586,2878.764,19038.9
704,35.2,-5.866786,-0.1544705,0.0040215,0,0,0,0,0,5.866652,27.40146,0.1544705,0,32.02254,-5.866786,2919.551,18926.2
726,36.3,-6.050385,-0.1594703,0.004151665,0,0,0,0,0,6.050252,28.259,0.1594703,0,33.21078,-6.050385,2978.446,18945.8
748,37.4,-6.233585,-0.1634835,0.004256147,0,0,0,0,0,6.233451,29.11467,0.1634835,0,34.41067,-6.233585,3016.984,18851.8
770,38.5,-6.416651,-0.166574,0.004336605,0,0,0,0,0,6.416518,29.96972,0.166574,0,35.62425,-6.416651,3036.937,18660.1
792,39.6,-6.60025,-0.1693919,0.004409965,0,0,0,0,0,6.600117,30.82726,0.1693919,0,36.85634,-6.60025,3050.494,18448
814,40.7,-6.783317,-0.1705333,0.00443968,0,0,0,0,0,6.783183,31.68231,0.1705333,0,38.10015,-6.783317,3033.087,18071
836,41.8,-6.966916,-0.1729526,0.004502664,0,0,0,0,0,6.966783,32.53986,0.1729526,0,39.36332,-6.966916,3037.504,17844.4
858,42.9,-7.150249,-0.1769955,0.004607918,0,0,0,0,0,7.150115,33.39615,0.1769955,0,40.64078,-7.150249,3069.051,17793.3
880,44.0,-7.333315,-0.1807935,0.004706796,0,0,0,0,0,7.333182,34.2512,0.1807935,0,41.93288,-7.333315,3094.662,17721.4
902,45.1,-7.516782,-0.1849057,0.004813855,0,0,0,0,0,7.516649,35.10812,0.1849057,0,43.24477,-7.516782,3123.801,17682.1
924,46.2,-7.700381,-0.188275,0.004901569,0,0,0,0,0,7.700248,35.96566,0.1882749,0,44.57507,-7.700381,3138.687,17575
946,47.3,-7.883447,-0.1929033,0.005022064,0,0,0,0,0,7.883314,36.82071,0.1929033,0,45.91936,-7.883447,3172.904,17588.9
968,48.4,-8.067047,-0.1986709,0.005172217,0,0,0,0,0,8.066914,37.67825,0.1986708,0,47.28598,-8.067047,3223.416,17702.5
990,49.5,-8.250247,-0.2036966,0.005303058,0,0,0,0,0,8.250113,38.53392,0.2036966,0,48.66848,-8.250247,3259.582,17747.3
1012,50.6,-8.433313,-0.2093432,0.005450061,0,0,0,0,0,8.43318,39.38898,0.2093432,0,50.06934,-8.433313,3303.338,17843.3
1034,51.7,-8.617045,-0.2170809,0.005651505,0,0,0,0,0,8.616911,40.24714,0.2170809,0,51.4953,-8.617045,3376.936,18108.3
1056,52.8,-8.800112,-0.2245007,0.005844673,0,0,0,0,0,8.799978,41.10219,0.2245007,0,52.93663,-8.800112,3442.384,18337.6
1078,53.9,-8.983445,-0.2322113,0.006045411,0,0,0,0,0,8.983313,41.95849,0.2322113,0,54.40117,-8.983445,3508.848,18580.4
1100,55.0,-9.166911,-0.2402408,0.006254453,0,0,0,0,0,9.166778,42.8154,0.2402408,0,55.88856,-9.166911,3576.584,18838.1
1122,56.1,-9.349978,-0.2494323,0.006493746,0,0,0,0,0,9.349844,43.67046,0.2494323,0,57.3951,-9.349978,3657.897,19175.9
1144,57.2,-9.533577,-0.2595207,0.006756387,0,0,0,0,0,9.533443,44.52799,0.2595207,0,58.92917,-9.533577,3747.903,19567.2
1166,58.3,-9.716776,-0.2686904,0.006995112,0,0,0,0,0,9.716643,45.38367,0.2686904,0,60.48372,-9.716776,3820.474,19876.7
1188,59.4,-9.900109,-0.2775906,0.007226821,0,0,0,0,0,9.899976,46.23996,0.2775906,0,62.06398,-9.900109,3885.142,20154.8
1210,60.5,-10.08371,-0.2855874,0.007435011,0,0,0,0,0,10.08358,47.0975,0.2855874,0,63.67197,-10.08371,3933.306,20357.8
1232,61.6,-10.26691,-0.2922893,0.007609488,0,0,0,0,0,10.26678,47.95318,0.2922893,0,65.30264,-10.26691,3960.497,20463.8
1254,62.7,-10.45011,-0.300268,0.007817207,0,0,0,0,0,10.44998,48.80885,0.300268,0,66.96035,-10.45011,4001.718,20653.8
1276,63.8,-10.63344,-0.3102285,0.00807652,0,0,0,0,0,10.63331,49.66515,0.3102285,0,68.64724,-10.63344,4065.304,20971.1
1298,64.9,-10.81677,-0.3197537,0.008324501,0,0,0,0,0,10.81664,50.52144,0.3197537,0,70.36307,-10.81677,4118.843,21248.6
1320,66.0,-11.00037,-0.3277366,0.008532328,0,0,0,0,0,11.00024,51.37898,0.3277366,0,72.11143,-11.00037,4148.504,21415.6
1342,67.10001,-11.18357,-0.3366115,0.008763377,0,0,0,0,0,11.18344,52.23465,0.3366114,0,73.88698,-11.18357,4185.857,21635.2
1364,68.20001,-11.36664,-0.344649,0.008972627,0,0,0,0,0,11.36651,53.08971,0.344649,0,75.69331,-11.36664,4209.086,21795
1386,69.3,-11.55024,-0.3526447,0.009180788,0,0,0,0,0,11.5501,53.94724,0.3526447,0,77.53825,-11.55024,4228.006,21946.2
1408,70.4,-11.73344,-0.3610058,0.009398462,0,0,0,0,0,11.7333,54.80292,0.3610058,0,79.41377,-11.73344,4247.831,22115.7
1430,71.5,-11.91704,-0.3682506,0.009587072,0,0,0,0,0,11.9169,55.66046,0.3682506,0,81.32934,-11.91704,4250.864,22212
1452,72.60001,-12.10037,-0.379332,0.009875567,0,0,0,0,0,12.10024,56.51675,0.379332,0,83.27945,-12.10037,4294.217,22533.7
1474,73.70001,-12.28344,-0.3912288,0.01018529,0,0,0,0,0,12.2833,57.37181,0.3912288,0,85.26543,-12.28344,4341.805,22894.1
1496,74.8,-12.4669,-0.4069331,0.01059414,0,0,0,0,0,12.46677,58.22872,0.4069331,0,87.29612,-12.4669,4425.306,23462.6
1518,75.9,-12.6501,-0.424235,0.01104458,0,0,0,0,0,12.64997,59.0844,0.424235,0,89.36587,-12.6501,4518.956,24106
1540,77.0,-12.83357,-0.4393544,0.0114382,0,0,0,0,0,12.83344,59.94131,0.4393544,0,91.48246,-12.83357,4581.992,24608.2
1562,78.10001,-13.0169,-0.4534651,0.01180555,0,0,0,0,0,13.01677,60.79761,0.4534651,0,93.64325,-13.0169,4628.059,25040.8
1584,79.20001,-13.19997,-0.465796,0.01212658,0,0,0,0,0,13.19983,61.65266,0.465796,0,95.8485,-13.19997,4650.221,25365
1606,80.3,-13.38343,-0.4793038,0.01247824,0,0,0,0,0,13.3833,62.50958,0.4793038,0,98.10847,-13.38343,4678.146,25742.8
1628,81.4,-13.56703,-0.4979311,0.01296319,0,0,0,0,0,13.5669,63.36712,0.4979311,0,100.4224,-13.56703,4748.79,26381.3
1650,82.50001,-13.7501,-0.5175691,0.01347444,0,0,0,0,0,13.74997,64.22217,0.5175691,0,102.7842,-13.7501,4820.864,27056.6
1672,83.60001,-13.9337,-0.5443084,0.01417058,0,0,0,0,0,13.93357,65.07971,0.5443084,0,105.2102,-13.9337,4948.407,28079.5
1694,84.70001,-14.1169,-0.5734722,0.01492983,0,0,0,0,0,14.11677,65.93539,0.5734722,0,107.6911,-14.1169,5085.79,29200.1
1716,85.8,-14.29997,-0.6054125,0.01576137,0,0,0,0,0,14.29983,66.79044,0.6054125,0,110.2332,-14.29997,5234.282,30431.8
1738,86.9,-14.4837,-0.6387465,0.01662919,0,0,0,0,0,14.48356,67.6486,0.6387464,0,112.8513,-14.4837,5379.776,31700.1
1760,88.00001,-14.66676,-0.6743645,0.01755647,0,0,0,0,0,14.66663,68.50365,0.6743645,0,115.5298,-14.66676,5529.649,33050
1782,89.10001,-14.85023,-0.7127109,0.01855479,0,0,0,0,0,14.8501,69.36057,0.712711,0,118.2882,-14.85023,5685.082,34497.8
1801,90.036,-15.00623,-0.747212,0.01945299,0,0,0,0,0,15.0061,70.0892,0.747212,0,120.695,-15.00623,5818.546,35791.8