File: GFBaking/em/1_g13_2.csv
,Time sec,Extension mm,Load kgf,Compressive stress MPa,Cycle Count ,Total Cycle Count ,Repetitions Count ,Marked Data ,PIP Count ,Compressive extension mm,Compressive strain %,Compressive load kgf,Displacement (Strain 1) mm,True strain %,Corrected Position mm,True stress Pa,Elastic Modulus
0,0.0,-0.000266666,-0.02506711,0.0006622408,0,0,0,0,0,0.0,0.0,0.02506711,0,0.0,-0.000266666,662.2408,inf
22,1.1,-0.1835995,-0.03568109,0.0009426486,0,0,0,0,0,0.1833329,0.8002402,0.03568109,0,0.8034593,-0.1835995,935.1052,139896
44,2.2,-0.3670658,-0.04305766,0.001137528,0,0,0,0,0,0.3667991,1.601062,0.04305767,0,1.614018,-0.3670658,1119.316,84378.1
66,3.3,-0.5499987,-0.04925622,0.001301286,0,0,0,0,0,0.549732,2.399556,0.04925622,0,2.428815,-0.5499987,1270.061,64404.7
88,4.4,-0.7333315,-0.05492702,0.001451102,0,0,0,0,0,0.7330649,3.199797,0.05492702,0,3.252109,-0.7333315,1404.669,53858.1
110,5.5,-0.9169311,-0.0603287,0.001593807,0,0,0,0,0,0.9166644,4.001201,0.0603287,0,4.08345,-0.9169311,1530.035,47306.5
132,6.6,-1.100131,-0.0657956,0.001738235,0,0,0,0,0,1.099864,4.800859,0.0657956,0,4.919927,-1.100131,1654.785,42999.7
154,7.7,-1.28373,-0.07143077,0.001887109,0,0,0,0,0,1.283464,5.602263,0.07143077,0,5.765309,-1.28373,1781.389,40004.5
176,8.8,-1.46653,-0.07668371,0.002025885,0,0,0,0,0,1.466263,6.400176,0.07668371,0,6.614168,-1.46653,1896.225,37592.3
198,9.900001,-1.650129,-0.08158976,0.002155497,0,0,0,0,0,1.649863,7.20158,0.08158977,0,7.474057,-1.650129,2000.267,35546.4
220,11.0,-1.833462,-0.08613836,0.002275665,0,0,0,0,0,1.833196,8.00182,0.08613836,0,8.340139,-1.833462,2093.57,33775
242,12.1,-2.016929,-0.09058912,0.002393248,0,0,0,0,0,2.016662,8.802642,0.09058912,0,9.214425,-2.016929,2182.579,32288.7
264,13.2,-2.200261,-0.09591104,0.002533847,0,0,0,0,0,2.199995,9.602881,0.09591104,0,10.09578,-2.200261,2290.524,31336.8
286,14.3,-2.383461,-0.1011092,0.002671174,0,0,0,0,0,2.383194,10.40254,0.1011092,0,10.98432,-2.383461,2393.304,30495.7
308,15.4,-2.566661,-0.105802,0.002795153,0,0,0,0,0,2.566394,11.2022,0.105802,0,11.88083,-2.566661,2482.034,29633.2
330,16.5,-2.750393,-0.1104356,0.002917567,0,0,0,0,0,2.750126,12.00418,0.1104356,0,12.78809,-2.750393,2567.337,28864.5
352,17.6,-2.933593,-0.1159233,0.003062545,0,0,0,0,0,2.933326,12.80384,0.1159233,0,13.70099,-2.933593,2670.421,28406.5
374,18.7,-3.116792,-0.1216805,0.003214642,0,0,0,0,0,3.116526,13.6035,0.1216805,0,14.6223,-3.116792,2777.338,28064.5
396,19.8,-3.300125,-0.1264403,0.003340391,0,0,0,0,0,3.299859,14.40374,0.1264403,0,15.55286,-3.300125,2859.25,27542.1
418,20.9,-3.483192,-0.1304446,0.003446178,0,0,0,0,0,3.482925,15.20282,0.1304446,0,16.49079,-3.483192,2922.262,26920.9
440,22.0,-3.666924,-0.1353835,0.003576658,0,0,0,0,0,3.666658,16.0048,0.1353835,0,17.44106,-3.666924,3004.221,26540.1
462,23.1,-3.850257,-0.1391788,0.003676926,0,0,0,0,0,3.849991,16.80504,0.1391788,0,18.39835,-3.850257,3059.017,25984.9
484,24.2,-4.033323,-0.1434858,0.003790712,0,0,0,0,0,4.033057,17.60412,0.1434858,0,19.36347,-4.033323,3123.39,25573
506,25.3,-4.21679,-0.1477383,0.003903057,0,0,0,0,0,4.216523,18.40494,0.1477383,0,20.34015,-4.21679,3184.702,25185.2
528,26.4,-4.399989,-0.1514902,0.004002176,0,0,0,0,0,4.399723,19.2046,0.1514902,0,21.32501,-4.399989,3233.574,24749.5
550,27.5,-4.583589,-0.1545637,0.004083375,0,0,0,0,0,4.583323,20.006,0.1545637,0,22.32186,-4.583589,3266.454,24240.1
572,28.6,-4.767055,-0.157326,0.00415635,0,0,0,0,0,4.766789,20.80683,0.157326,0,23.32801,-4.767055,3291.546,23723.7
594,29.7,-4.950122,-0.1606338,0.004243739,0,0,0,0,0,4.949855,21.6059,0.1606338,0,24.34216,-4.950122,3326.841,23326.6
616,30.8,-5.133587,-0.1638049,0.004327514,0,0,0,0,0,5.133321,22.40672,0.1638049,0,25.36894,-5.133587,3357.86,22937
638,31.9,-5.316921,-0.1667644,0.004405701,0,0,0,0,0,5.316654,23.20697,0.1667644,0,26.40563,-5.316921,3383.271,22546.1
660,33.0,-5.50012,-0.1696472,0.004481862,0,0,0,0,0,5.499854,24.00662,0.1696472,0,27.4524,-5.50012,3405.918,22171.9
682,34.1,-5.683453,-0.1703582,0.004500646,0,0,0,0,0,5.683187,24.80686,0.1703582,0,28.51102,-5.683453,3384.177,21546.6
704,35.2,-5.866786,-0.1716817,0.00453561,0,0,0,0,0,5.866518,25.6071,0.1716817,0,29.58097,-5.866786,3374.172,21035.4
726,36.3,-6.050119,-0.1748478,0.004619256,0,0,0,0,0,6.049852,26.40734,0.1748478,0,30.66249,-6.050119,3399.433,20774.1
748,37.4,-6.233718,-0.1792886,0.004736575,0,0,0,0,0,6.233451,27.20875,0.1792886,0,31.75744,-6.233718,3447.812,20674.3
770,38.5,-6.416651,-0.1829314,0.004832812,0,0,0,0,0,6.416385,28.00724,0.1829314,0,32.86047,-6.416651,3479.275,20493
792,39.6,-6.600117,-0.1866058,0.004929887,0,0,0,0,0,6.599851,28.80806,0.1866058,0,33.97906,-6.600117,3509.682,20323.5
814,40.7,-6.783584,-0.187397,0.00495079,0,0,0,0,0,6.783317,29.60889,0.187397,0,35.11032,-6.783584,3484.916,19857.6
836,41.8,-6.96705,-0.1910839,0.00504819,0,0,0,0,0,6.966783,30.40971,0.1910839,0,36.25451,-6.96705,3513.05,19715.1
858,42.9,-7.150249,-0.1921185,0.005075525,0,0,0,0,0,7.149982,31.20937,0.1921185,0,37.41026,-7.150249,3491.486,19314
880,44.0,-7.333315,-0.1955044,0.005164974,0,0,0,0,0,7.333049,32.00844,0.1955044,0,38.57866,-7.333315,3511.747,19163.7
902,45.1,-7.516782,-0.1983742,0.005240791,0,0,0,0,0,7.516515,32.80927,0.1983742,0,39.76348,-7.516782,3521.326,18970.4
924,46.2,-7.700381,-0.2023008,0.005344527,0,0,0,0,0,7.700115,33.61067,0.2023008,0,40.96338,-7.700381,3548.196,18884.6
946,47.3,-7.883581,-0.2084472,0.005506908,0,0,0,0,0,7.883314,34.41033,0.2084472,0,42.17519,-7.883581,3611.963,19006.2
968,48.4,-8.067047,-0.2137102,0.005645948,0,0,0,0,0,8.066781,35.21115,0.2137102,0,43.40367,-8.067047,3657.945,19042.9
990,49.5,-8.24998,-0.2193265,0.005794325,0,0,0,0,0,8.249713,36.00964,0.2193265,0,44.64378,-8.24998,3707.809,19110
1012,50.6,-8.433313,-0.2227282,0.005884192,0,0,0,0,0,8.433045,36.80988,0.2227282,0,45.90223,-8.433313,3718.228,18984.5
1034,51.7,-8.616912,-0.226221,0.00597647,0,0,0,0,0,8.616646,37.61129,0.226221,0,47.17858,-8.616912,3728.642,18871.3
1056,52.8,-8.800245,-0.2317819,0.006123381,0,0,0,0,0,8.799978,38.41153,0.2317819,0,48.46955,-8.800245,3771.297,18932.4
1078,53.9,-8.983579,-0.2385435,0.006302014,0,0,0,0,0,8.983313,39.21177,0.2385435,0,49.7774,-8.983579,3830.882,19087
1100,55.0,-9.166778,-0.2453827,0.006482695,0,0,0,0,0,9.166512,40.01143,0.2453827,0,51.10161,-9.166778,3888.876,19241.9
1122,56.1,-9.349844,-0.2528459,0.006679864,0,0,0,0,0,9.349578,40.8105,0.2528459,0,52.44261,-9.349844,3953.778,19438.9
1144,57.2,-9.53371,-0.2587274,0.006835245,0,0,0,0,0,9.533442,41.61307,0.2587274,0,53.80781,-9.53371,3990.89,19507.4
1166,58.3,-9.717043,-0.2643661,0.006984213,0,0,0,0,0,9.716776,42.41331,0.2643661,0,55.18787,-9.717043,4021.977,19556.5
1188,59.4,-9.900109,-0.2689054,0.007104135,0,0,0,0,0,9.899842,43.21239,0.2689054,0,56.5852,-9.900109,4034.269,19524.4
1210,60.5,-10.08358,-0.2723208,0.007194367,0,0,0,0,0,10.08331,44.01321,0.2723208,0,58.00544,-10.08358,4027.895,19412.7
1232,61.6,-10.26651,-0.2767301,0.007310855,0,0,0,0,0,10.26624,44.8117,0.2767301,0,59.44193,-10.26651,4034.736,19375.5
1254,62.7,-10.45024,-0.2810344,0.007424567,0,0,0,0,0,10.44998,45.61369,0.2810344,0,60.90577,-10.45024,4037.948,19330.9
1276,63.8,-10.63371,-0.2855243,0.007543185,0,0,0,0,0,10.63344,46.41451,0.2855243,0,62.38918,-10.63371,4042.053,19300.9
1298,64.9,-10.81677,-0.2905687,0.007676451,0,0,0,0,0,10.81651,47.21358,0.2905687,0,63.89163,-10.81677,4052.124,19309.4
1320,66.0,-11.00037,-0.2961761,0.007824592,0,0,0,0,0,11.00011,48.01499,0.2961761,0,65.42148,-11.00037,4067.615,19353.5
1342,67.10001,-11.18357,-0.3023968,0.007988934,0,0,0,0,0,11.18331,48.81465,0.3023967,0,66.97169,-11.18357,4089.164,19436.3
1364,68.20001,-11.36677,-0.3100595,0.008191374,0,0,0,0,0,11.36651,49.61431,0.3100595,0,68.54629,-11.36677,4127.281,19607.6
1386,69.3,-11.55024,-0.3177844,0.008395458,0,0,0,0,0,11.54997,50.41513,0.3177845,0,70.14845,-11.55024,4162.877,19776.9
1408,70.4,-11.73357,-0.325949,0.008611155,0,0,0,0,0,11.7333,51.21537,0.325949,0,71.77549,-11.73357,4200.92,19968.1
1430,71.5,-11.9169,-0.3347885,0.008844683,0,0,0,0,0,11.91664,52.01561,0.3347885,0,73.42945,-11.9169,4244.067,20194.1
1452,72.60001,-12.1005,-0.345373,0.009124311,0,0,0,0,0,12.10024,52.81701,0.3453729,0,75.11368,-12.1005,4305.122,20516.4
1474,73.70001,-12.2833,-0.3542587,0.00935906,0,0,0,0,0,12.28304,53.61493,0.3542587,0,76.81925,-12.2833,4341.207,20731.1
1496,74.8,-12.46677,-0.3654298,0.009654187,0,0,0,0,0,12.4665,54.41575,0.3654298,0,78.56079,-12.46677,4400.789,21070.1
1518,75.9,-12.65024,-0.3751117,0.009909971,0,0,0,0,0,12.64997,55.21657,0.3751117,0,80.33319,-12.65024,4438.025,21314.7
1540,77.0,-12.83357,-0.3828396,0.01011413,0,0,0,0,0,12.8333,56.01681,0.3828396,0,82.13626,-12.83357,4448.518,21443
1562,78.10001,-13.01704,-0.3922568,0.01036292,0,0,0,0,0,13.01677,56.81763,0.3922568,0,83.9738,-13.01704,4474.955,21660.8
1584,79.20001,-13.2001,-0.4026073,0.01063637,0,0,0,0,0,13.19983,57.61671,0.4026073,0,85.84161,-13.2001,4508.043,21924
1606,80.3,-13.38343,-0.4116398,0.01087499,0,0,0,0,0,13.38317,58.41695,0.4116398,0,87.74776,-13.38343,4522.154,22108.8
1628,81.4,-13.5669,-0.4209347,0.01112055,0,0,0,0,0,13.56663,59.21777,0.4209347,0,89.69237,-13.5669,4535.21,22302.3
1650,82.50001,-13.7501,-0.4319341,0.01141115,0,0,0,0,0,13.74983,60.01743,0.4319341,0,91.67266,-13.7501,4562.469,22580.2
1672,83.60001,-13.93357,-0.4421239,0.01168035,0,0,0,0,0,13.9333,60.81825,0.4421239,0,93.69591,-13.93357,4576.564,22808.5
1694,84.70001,-14.11677,-0.4546544,0.01201139,0,0,0,0,0,14.1165,61.61791,0.4546544,0,95.75793,-14.11677,4610.221,23150.6
1716,85.8,-14.30023,-0.4703792,0.01242681,0,0,0,0,0,14.29996,62.41873,0.4703791,0,97.86644,-14.30023,4670.154,23644
1738,86.9,-14.4837,-0.4868196,0.01286115,0,0,0,0,0,14.48343,63.21955,0.4868196,0,100.0204,-14.4837,4730.388,24160.4
1760,88.00001,-14.6669,-0.5059484,0.01336651,0,0,0,0,0,14.66663,64.01921,0.5059484,0,102.2185,-14.6669,4809.374,24796.1
1782,89.10001,-14.85023,-0.5260814,0.0138984,0,0,0,0,0,14.84996,64.81945,0.5260814,0,104.4677,-14.85023,4889.532,25464.5
1804,90.20001,-15.03343,-0.546446,0.0144364,0,0,0,0,0,15.03316,65.61911,0.546446,0,106.7669,-15.03343,4963.364,26127.9
1805,90.21201,-15.03543,-0.5466092,0.01444071,0,0,0,0,0,15.03516,65.62784,0.5466092,0,106.7923,-15.03543,4963.585,26132.2