File: GFBaking/em/1_g13_5.csv
,Time sec,Extension mm,Load kgf,Compressive stress MPa,Cycle Count ,Total Cycle Count ,Repetitions Count ,Marked Data ,PIP Count ,Compressive extension mm,Compressive strain %,Compressive load kgf,Displacement (Strain 1) mm,True strain %,Corrected Position mm,True stress Pa,Elastic Modulus
0,0.0,0.0,-0.01755855,0.0004742884,0,0,0,0,0,0.0,0.0,0.01755855,0,0.0,0.0,474.2884,inf
22,1.1,-0.1833329,-0.03174105,0.0008573837,0,0,0,0,0,0.1833329,0.7629418,0.03174105,0,0.7658671,-0.1833329,850.8423,124448
44,2.2,-0.3666658,-0.04210806,0.001137416,0,0,0,0,0,0.3666658,1.525884,0.04210806,0,1.537645,-0.3666658,1120.06,82547.2
66,3.3,-0.5503987,-0.05214982,0.001408662,0,0,0,0,0,0.5503986,2.29049,0.05214982,0,2.317129,-0.5503987,1376.396,68105.6
88,4.4,-0.7335982,-0.06137461,0.00165784,0,0,0,0,0,0.7335982,3.052877,0.06137461,0,3.100448,-0.7335982,1607.228,60136.5
110,5.5,-0.9167978,-0.07088644,0.001914772,0,0,0,0,0,0.9167978,3.815264,0.07088643,0,3.889951,-0.9167978,1841.718,55577.2
132,6.6,-1.099997,-0.07965488,0.002151623,0,0,0,0,0,1.099997,4.577651,0.07965487,0,4.685737,-1.099997,2053.13,52050.9
154,7.7,-1.28333,-0.08821005,0.002382714,0,0,0,0,0,1.28333,5.340593,0.08821005,0,5.488493,-1.28333,2255.463,49406.8
176,8.8,-1.46693,-0.09592395,0.002591081,0,0,0,0,0,1.46693,6.104644,0.09592395,0,6.298926,-1.46693,2432.905,47002.9
198,9.900001,-1.650263,-0.1043781,0.002819442,0,0,0,0,0,1.650263,6.867586,0.1043781,0,7.11479,-1.650263,2625.815,45463.6
220,11.0,-1.833196,-0.1114266,0.003009835,0,0,0,0,0,1.833196,7.628863,0.1114266,0,7.935563,-1.833196,2780.219,43690.5
242,12.1,-2.016795,-0.117432,0.003172051,0,0,0,0,0,2.016795,8.392915,0.117432,0,8.766157,-2.016795,2905.823,41853.5
264,13.2,-2.199995,-0.1245889,0.003365373,0,0,0,0,0,2.199995,9.155302,0.1245889,0,9.601875,-2.199995,3057.263,40706.6
286,14.3,-2.383594,-0.1296559,0.003502243,0,0,0,0,0,2.383594,9.919353,0.1296559,0,10.44648,-2.383594,3154.843,39099.1
308,15.4,-2.567061,-0.1337931,0.003613995,0,0,0,0,0,2.56706,10.68285,0.1337931,0,11.29767,-2.567061,3227.917,37463.2
330,16.5,-2.749993,-0.1384423,0.003739579,0,0,0,0,0,2.749993,11.44413,0.1384423,0,12.15365,-2.749993,3311.617,36186.3
352,17.6,-2.933326,-0.1422822,0.003843302,0,0,0,0,0,2.933326,12.20707,0.1422822,0,13.01892,-2.933326,3374.148,34865.6
374,18.7,-3.116659,-0.1471822,0.00397566,0,0,0,0,0,3.116659,12.97001,0.1471822,0,13.89174,-3.116659,3460.016,33944.8
396,19.8,-3.300125,-0.1521658,0.004110274,0,0,0,0,0,3.300125,13.73351,0.1521658,0,14.77289,-3.300125,3545.789,33143.2
418,20.9,-3.483592,-0.1567454,0.004233979,0,0,0,0,0,3.483592,14.497,0.1567454,0,15.66188,-3.483592,3620.178,32342.6
440,22.0,-3.666658,-0.160043,0.004323054,0,0,0,0,0,3.666658,15.25884,0.160043,0,16.55687,-3.666658,3663.406,31374.3
462,23.1,-3.849991,-0.1632148,0.00440873,0,0,0,0,0,3.849991,16.02178,0.1632148,0,17.46127,-3.849991,3702.373,30472.4
484,24.2,-4.03359,-0.1658292,0.004479348,0,0,0,0,0,4.03359,16.78583,0.1658292,0,18.37525,-4.03359,3727.452,29551.3
506,25.3,-4.21679,-0.1684619,0.004550464,0,0,0,0,0,4.21679,17.54822,0.1684619,0,19.29565,-4.21679,3751.938,28716.2
528,26.4,-4.400256,-0.1712934,0.004626947,0,0,0,0,0,4.400256,18.31171,0.1712934,0,20.22596,-4.400256,3779.674,27981.4
550,27.5,-4.583456,-0.1747746,0.004720982,0,0,0,0,0,4.583456,19.0741,0.1747746,0,21.16363,-4.583456,3820.497,27409
572,28.6,-4.766522,-0.1784846,0.004821194,0,0,0,0,0,4.766522,19.83593,0.1784846,0,22.10948,-4.766522,3864.865,26915.7
594,29.7,-4.950255,-0.1816259,0.004906047,0,0,0,0,0,4.950255,20.60054,0.1816259,0,23.06786,-4.950255,3895.375,26372.9
616,30.8,-5.133454,-0.1840762,0.004972233,0,0,0,0,0,5.133454,21.36293,0.1840762,0,24.03269,-5.133454,3910.018,25774.8
638,31.9,-5.316787,-0.1865007,0.005037725,0,0,0,0,0,5.316787,22.12587,0.1865007,0,25.00763,-5.316787,3923.084,25213.8
660,33.0,-5.500386,-0.1887037,0.00509723,0,0,0,0,0,5.500386,22.88992,0.1887037,0,25.99362,-5.500386,3930.479,24660.1
682,34.1,-5.683453,-0.1898628,0.005128541,0,0,0,0,0,5.683453,23.65175,0.1898628,0,26.98651,-5.683453,3915.551,24012.4
704,35.2,-5.866919,-0.1905762,0.005147809,0,0,0,0,0,5.866919,24.41525,0.1905762,0,27.99156,-5.866919,3890.959,23348.9
726,36.3,-6.049985,-0.1917072,0.005178361,0,0,0,0,0,6.049985,25.17708,0.1917072,0,29.00459,-6.049985,3874.601,22776.7
748,37.4,-6.233318,-0.193018,0.005213766,0,0,0,0,0,6.233318,25.94002,0.1930179,0,30.02949,-6.233318,3861.314,22258
770,38.5,-6.416918,-0.1949283,0.00526537,0,0,0,0,0,6.416918,26.70407,0.1949283,0,31.06652,-6.416918,3859.301,21835.1
792,39.6,-6.600117,-0.1969425,0.005319777,0,0,0,0,0,6.600117,27.46646,0.1969426,0,32.11211,-6.600117,3858.623,21448.4
814,40.7,-6.783317,-0.1985868,0.005364192,0,0,0,0,0,6.783317,28.22885,0.1985868,0,33.16876,-6.783317,3849.942,21043.4
836,41.8,-6.96665,-0.1974754,0.00533417,0,0,0,0,0,6.96665,28.99179,0.1974754,0,34.23747,-6.96665,3787.699,20374.9
858,42.9,-7.149983,-0.1964483,0.005306427,0,0,0,0,0,7.149983,29.75473,0.1964483,0,35.31772,-7.149983,3727.514,19749.2
880,44.0,-7.333715,-0.1936492,0.005230817,0,0,0,0,0,7.333715,30.51934,0.1936492,0,36.41217,-7.333715,3634.407,18980.1
902,45.1,-7.517048,-0.1917521,0.005179573,0,0,0,0,0,7.517048,31.28228,0.1917521,0,37.51631,-7.517048,3559.284,18335.8
924,46.2,-7.699981,-0.1926404,0.005203568,0,0,0,0,0,7.699981,32.04356,0.1926404,0,38.63032,-7.699981,3536.16,17983.1
946,47.3,-7.883447,-0.1948654,0.005263669,0,0,0,0,0,7.883447,32.80705,0.1948654,0,39.76019,-7.883447,3536.814,17767.5
968,48.4,-8.066647,-0.1976048,0.005337666,0,0,0,0,0,8.066647,33.56944,0.1976048,0,40.9013,-8.066647,3545.841,17608.1
990,49.5,-8.250247,-0.2012333,0.00543568,0,0,0,0,0,8.250247,34.33349,0.2012333,0,42.05812,-8.250247,3569.421,17532.4
1012,50.6,-8.433846,-0.2043356,0.005519476,0,0,0,0,0,8.433846,35.09754,0.2043356,0,43.22847,-8.433846,3582.276,17415.1
1034,51.7,-8.616513,-0.2068046,0.005586168,0,0,0,0,0,8.616512,35.85771,0.2068046,0,44.40663,-8.616513,3583.096,17251.9
1056,52.8,-8.800112,-0.2097108,0.00566467,0,0,0,0,0,8.800112,36.62176,0.2097108,0,45.60496,-8.800112,3590.168,17129.3
1078,53.9,-8.983445,-0.214107,0.00578342,0,0,0,0,0,8.983445,37.38471,0.214107,0,46.81606,-8.983445,3621.305,17131.5
1100,55.0,-9.166911,-0.2187385,0.005908525,0,0,0,0,0,9.166911,38.1482,0.2187385,0,48.0429,-9.166911,3654.529,17151.8
1122,56.1,-9.350377,-0.2234017,0.006034487,0,0,0,0,0,9.350377,38.9117,0.2234017,0,49.28498,-9.350377,3686.366,17173.7
1144,57.2,-9.53331,-0.2279924,0.006158491,0,0,0,0,0,9.53331,39.67298,0.2279924,0,50.539,-9.53331,3715.234,17190.3
1166,58.3,-9.716776,-0.2312891,0.00624754,0,0,0,0,0,9.716776,40.43647,0.2312891,0,51.81267,-9.716776,3721.255,17109.6
1188,59.4,-9.900109,-0.2343352,0.00632982,0,0,0,0,0,9.900109,41.19941,0.2343352,0,53.10183,-9.900109,3721.971,17013.9
1210,60.5,-10.08344,-0.2390399,0.006456904,0,0,0,0,0,10.08344,41.96236,0.2390399,0,54.40784,-10.08344,3747.435,17040
1232,61.6,-10.26691,-0.2446334,0.006607994,0,0,0,0,0,10.26691,42.72585,0.2446334,0,55.73208,-10.26691,3784.673,17127.1
1254,62.7,-10.45011,-0.2496761,0.006744207,0,0,0,0,0,10.45011,43.48824,0.2496761,0,57.07214,-10.45011,3811.27,17173.7
1276,63.8,-10.63331,-0.2545451,0.006875726,0,0,0,0,0,10.63331,44.25063,0.2545451,0,58.4304,-10.63331,3833.174,17206.9
1298,64.9,-10.81704,-0.2609803,0.007049554,0,0,0,0,0,10.81704,45.01524,0.2609803,0,59.8114,-10.81704,3876.181,17342.3
1320,66.0,-11.00011,-0.2674123,0.007223293,0,0,0,0,0,11.00011,45.77706,0.2674123,0,61.20662,-11.00011,3916.682,17474
1342,67.10001,-11.18344,-0.2731328,0.007377815,0,0,0,0,0,11.18344,46.54001,0.2731328,0,62.62366,-11.18344,3944.179,17555.2
1364,68.20001,-11.36704,-0.279564,0.007551533,0,0,0,0,0,11.36704,47.30406,0.279564,0,64.06317,-11.36704,3979.351,17678.3
1386,69.3,-11.55024,-0.2833333,0.00765335,0,0,0,0,0,11.55024,48.06644,0.2833334,0,65.52051,-11.55024,3974.657,17632.5
1408,70.4,-11.73357,-0.2882856,0.007787119,0,0,0,0,0,11.73357,48.82938,0.2882856,0,67.00047,-11.73357,3984.717,17660.4
1430,71.5,-11.91677,-0.2905354,0.00784789,0,0,0,0,0,11.91677,49.59177,0.2905354,0,68.50158,-11.91677,3955.982,17524.6
1452,72.60001,-12.09997,-0.2929343,0.007912691,0,0,0,0,0,12.09997,50.35416,0.2929343,0,70.02556,-12.09997,3928.322,17401.8
1474,73.70001,-12.2837,-0.2985593,0.00806463,0,0,0,0,0,12.2837,51.11877,0.2985593,0,71.57766,-12.2837,3942.091,17470.6
1496,74.8,-12.4669,-0.3029714,0.008183811,0,0,0,0,0,12.4669,51.88115,0.3029714,0,73.14963,-12.4669,3937.955,17468.3
1518,75.9,-12.6501,-0.3067768,0.008286601,0,0,0,0,0,12.6501,52.64354,0.3067768,0,74.7467,-12.6501,3924.241,17431.5
1540,77.0,-12.8333,-0.3127568,0.008448132,0,0,0,0,0,12.8333,53.40593,0.3127568,0,76.36968,-12.8333,3936.329,17517.6
1562,78.10001,-13.01663,-0.3188366,0.008612357,0,0,0,0,0,13.01663,54.16887,0.3188366,0,78.02066,-13.01663,3947.141,17606.7
1584,79.20001,-13.20023,-0.3240326,0.008752712,0,0,0,0,0,13.20023,54.93292,0.3240326,0,79.70182,-13.20023,3944.592,17644.7
1606,80.3,-13.3837,-0.3296642,0.008904831,0,0,0,0,0,13.3837,55.69642,0.3296642,0,81.41046,-13.3837,3945.159,17705.3
1628,81.4,-13.56663,-0.3355653,0.009064231,0,0,0,0,0,13.56663,56.4577,0.3355653,0,83.14372,-13.56663,3946.775,17779.2
1650,82.50001,-13.74997,-0.3424184,0.009249346,0,0,0,0,0,13.74997,57.22064,0.3424185,0,84.91144,-13.74997,3956.811,17900.4
1672,83.60001,-13.93317,-0.3517538,0.00950151,0,0,0,0,0,13.93317,57.98302,0.3517538,0,86.70964,-13.93317,3992.247,18146.6
1694,84.70001,-14.1169,-0.3625174,0.009792255,0,0,0,0,0,14.1169,58.74763,0.3625174,0,88.54616,-14.1169,4039.537,18458.5
1716,85.8,-14.30037,-0.3729968,0.01007532,0,0,0,0,0,14.30037,59.51113,0.3729968,0,90.4143,-14.30037,4079.385,18748.4
1738,86.9,-14.4833,-0.3820345,0.01031945,0,0,0,0,0,14.4833,60.2724,0.3820345,0,92.31241,-14.4833,4099.668,18960.2
1760,88.00001,-14.66676,-0.3919352,0.01058688,0,0,0,0,0,14.66676,61.0359,0.3919352,0,94.25295,-14.66676,4125.084,19208.2
1782,89.10001,-14.8501,-0.4019675,0.01085788,0,0,0,0,0,14.8501,61.79884,0.4019675,0,96.23043,-14.8501,4147.834,19456.7
1803,90.14401,-15.02383,-0.4136952,0.01117466,0,0,0,0,0,15.02383,62.52184,0.4136952,0,98.14117,-15.02383,4188.058,19792.8