File: GFBaking/em/1_g13_1.csv
,Time sec,Extension mm,Load kgf,Compressive stress MPa,Cycle Count ,Total Cycle Count ,Repetitions Count ,Marked Data ,PIP Count ,Compressive extension mm,Compressive strain %,Compressive load kgf,Displacement (Strain 1) mm,True strain %,Corrected Position mm,True stress Pa,Elastic Modulus
0,0.0,-0.000266666,-0.01954255,0.0005134511,0,0,0,0,0,0.0,0.0,0.01954255,0,0.0,-0.000266666,513.4511,inf
22,1.1,-0.1833329,-0.03098747,0.0008141491,0,0,0,0,0,0.1830662,0.7800009,0.03098747,0,0.7830589,-0.1833329,807.7987,121670
44,2.2,-0.3669325,-0.03923884,0.001030941,0,0,0,0,0,0.3666658,1.562274,0.03923884,0,1.574607,-0.3669325,1014.835,76922.4
66,3.3,-0.5502653,-0.04788033,0.001257984,0,0,0,0,0,0.5499986,2.343411,0.04788033,0,2.371306,-0.5502653,1228.504,62575.3
88,4.4,-0.7334649,-0.05667031,0.001488927,0,0,0,0,0,0.7331982,3.123981,0.05667031,0,3.173818,-0.7334649,1442.413,55557.3
110,5.5,-0.9169311,-0.06580086,0.001728818,0,0,0,0,0,0.9166644,3.905686,0.06580086,0,3.984004,-0.9169311,1661.296,51597.5
132,6.6,-1.100264,-0.0748586,0.001966797,0,0,0,0,0,1.099997,4.686823,0.07485861,0,4.800211,-1.100264,1874.617,48916.7
154,7.7,-1.283597,-0.08331423,0.002188956,0,0,0,0,0,1.28333,5.46796,0.08331423,0,5.623136,-1.283597,2069.265,46664.7
176,8.8,-1.467196,-0.09103255,0.002391743,0,0,0,0,0,1.46693,6.250233,0.09103256,0,6.454101,-1.467196,2242.254,44606.1
198,9.900001,-1.649863,-0.1000144,0.002627729,0,0,0,0,0,1.649596,7.02853,0.1000144,0,7.287751,-1.649863,2443.038,43580.5
220,11.0,-1.833596,-0.1084243,0.002848684,0,0,0,0,0,1.833329,7.811371,0.1084243,0,8.13334,-1.833596,2626.163,42510.2
242,12.1,-2.016929,-0.116875,0.003070715,0,0,0,0,0,2.016662,8.592509,0.116875,0,8.984276,-2.016929,2806.863,41657.8
264,13.2,-2.200261,-0.1244085,0.003268645,0,0,0,0,0,2.199995,9.373646,0.1244085,0,9.842513,-2.200261,2962.254,40647.7
286,14.3,-2.383728,-0.1310426,0.003442946,0,0,0,0,0,2.383461,10.15535,0.1310426,0,10.70881,-2.383728,3093.303,39519.5
308,15.4,-2.566661,-0.1380483,0.003627011,0,0,0,0,0,2.566394,10.93478,0.1380483,0,11.58013,-2.566661,3230.405,38664.7
330,16.5,-2.75026,-0.1444231,0.0037945,0,0,0,0,0,2.749993,11.71706,0.1444231,0,12.46233,-2.75026,3349.896,37749.6
352,17.6,-2.933593,-0.1506348,0.003957703,0,0,0,0,0,2.933326,12.49819,0.1506348,0,13.35108,-2.933593,3463.061,36912.4
374,18.7,-3.116926,-0.1564429,0.0041103,0,0,0,0,0,3.116659,13.27933,0.1564429,0,14.24779,-3.116926,3564.48,36080.6
396,19.8,-3.300259,-0.1620298,0.004257089,0,0,0,0,0,3.299992,14.06047,0.1620298,0,15.15263,-3.300259,3658.522,35293.1
418,20.9,-3.483458,-0.1672404,0.004393991,0,0,0,0,0,3.483191,14.84104,0.1672404,0,16.06505,-3.483458,3741.877,34512.1
440,22.0,-3.666791,-0.173431,0.004556639,0,0,0,0,0,3.666525,15.62218,0.173431,0,16.98656,-3.666791,3844.792,34000
462,23.1,-3.850391,-0.1797781,0.0047234,0,0,0,0,0,3.850124,16.40445,0.1797781,0,17.91799,-3.850391,3948.552,33563.7
484,24.2,-4.03359,-0.185656,0.004877831,0,0,0,0,0,4.033323,17.18502,0.185656,0,18.85612,-4.03359,4039.575,33086.7
506,25.3,-4.216923,-0.1915106,0.005031653,0,0,0,0,0,4.216657,17.96615,0.1915106,0,19.80383,-4.216923,4127.658,32646.1
528,26.4,-4.400122,-0.1970329,0.005176741,0,0,0,0,0,4.399856,18.74672,0.1970329,0,20.7599,-4.400122,4206.272,32189
550,27.5,-4.583189,-0.202294,0.005314969,0,0,0,0,0,4.582922,19.52672,0.202294,0,21.7245,-4.583189,4277.13,31728.4
572,28.6,-4.766922,-0.2068685,0.005435158,0,0,0,0,0,4.766655,20.30957,0.2068685,0,22.70206,-4.766922,4331.301,31195.2
594,29.7,-4.950255,-0.2109218,0.005541652,0,0,0,0,0,4.949988,21.0907,0.2109218,0,23.68712,-4.950255,4372.879,30628.4
616,30.8,-5.133587,-0.2159917,0.005674857,0,0,0,0,0,5.133321,21.87184,0.2159917,0,24.68196,-5.133587,4433.661,30244.5
638,31.9,-5.317054,-0.2208819,0.005803339,0,0,0,0,0,5.316787,22.65355,0.2208819,0,25.68754,-5.317054,4488.677,29862
660,33.0,-5.499986,-0.224549,0.005899686,0,0,0,0,0,5.49972,23.43298,0.224549,0,26.70037,-5.499986,4517.214,29348
682,34.1,-5.68372,-0.2276065,0.005980018,0,0,0,0,0,5.683453,24.21582,0.2276065,0,27.72806,-5.68372,4531.908,28785.9
704,35.2,-5.867052,-0.2297031,0.006035104,0,0,0,0,0,5.866786,24.99696,0.2297031,0,28.76415,-5.867052,4526.512,28143.2
726,36.3,-6.050119,-0.232328,0.006104068,0,0,0,0,0,6.049852,25.77696,0.232328,0,29.80956,-6.050119,4530.625,27603.5
748,37.4,-6.233718,-0.2360074,0.00620074,0,0,0,0,0,6.233451,26.55923,0.2360074,0,30.8691,-6.233718,4553.871,27214.8
770,38.5,-6.416918,-0.239751,0.006299097,0,0,0,0,0,6.416651,27.3398,0.239751,0,31.93764,-6.416918,4576.937,26857.1
792,39.6,-6.599984,-0.2422214,0.006364003,0,0,0,0,0,6.599717,28.1198,0.2422214,0,33.01694,-6.599984,4574.458,26381.2
814,40.7,-6.78345,-0.2462586,0.006470075,0,0,0,0,0,6.783184,28.90151,0.2462586,0,34.1104,-6.78345,4600.126,26095.5
836,41.8,-6.966916,-0.248481,0.006528464,0,0,0,0,0,6.96665,29.68321,0.248481,0,35.21596,-6.966916,4590.606,25637.5
858,42.9,-7.150249,-0.2492867,0.006549633,0,0,0,0,0,7.149982,30.46435,0.2492867,0,36.33306,-7.150249,4554.33,25061.2
880,44.0,-7.333715,-0.2528421,0.006643044,0,0,0,0,0,7.333448,31.24605,0.2528421,0,37.4636,-7.333715,4567.355,24782.7
902,45.1,-7.516782,-0.2566579,0.0067433,0,0,0,0,0,7.516515,32.02605,0.2566579,0,38.60457,-7.516782,4583.687,24544
924,46.2,-7.700115,-0.2595357,0.006818909,0,0,0,0,0,7.699848,32.80719,0.2595357,0,39.7604,-7.700115,4581.816,24228.3
946,47.3,-7.883715,-0.263303,0.006917889,0,0,0,0,0,7.883448,33.58947,0.263303,0,40.93145,-7.883715,4594.207,24007.5
968,48.4,-8.066914,-0.2676285,0.007031535,0,0,0,0,0,8.066648,34.37004,0.2676285,0,42.11378,-8.066914,4614.794,23847.7
990,49.5,-8.25038,-0.2723885,0.007156597,0,0,0,0,0,8.250113,35.15174,0.2723885,0,43.31201,-8.25038,4640.928,23732.1
1012,50.6,-8.433446,-0.2783091,0.007312152,0,0,0,0,0,8.433179,35.93174,0.2783091,0,44.52211,-8.433446,4684.768,23721.6
1034,51.7,-8.616779,-0.2856508,0.007505044,0,0,0,0,0,8.616512,36.71288,0.2856508,0,45.74883,-8.616779,4749.726,23829.3
1056,52.8,-8.800379,-0.2917568,0.00766547,0,0,0,0,0,8.800112,37.49515,0.2917568,0,46.9926,-8.800379,4791.291,23830.9
1078,53.9,-8.983579,-0.298053,0.007830893,0,0,0,0,0,8.983313,38.27572,0.298053,0,48.24929,-8.983579,4833.562,23848.7
1100,55.0,-9.167044,-0.3039234,0.007985129,0,0,0,0,0,9.166778,39.05743,0.3039234,0,49.52382,-9.167044,4866.343,23831.7
1122,56.1,-9.349978,-0.3107342,0.008164073,0,0,0,0,0,9.349711,39.83686,0.3107342,0,50.81103,-9.349978,4911.763,23889
1144,57.2,-9.533577,-0.318481,0.008367607,0,0,0,0,0,9.533309,40.61913,0.3184809,0,52.1198,-9.533577,4968.758,24013
1166,58.3,-9.716909,-0.3256433,0.008555787,0,0,0,0,0,9.716643,41.40027,0.3256433,0,53.44401,-9.716909,5013.668,24089.8
1188,59.4,-9.900243,-0.3331714,0.008753577,0,0,0,0,0,9.899977,42.18141,0.3331714,0,54.78598,-9.900243,5061.195,24190.3
1210,60.5,-10.08358,-0.3406753,0.008950731,0,0,0,0,0,10.08331,42.96254,0.3406753,0,56.1462,-10.08358,5105.269,24285.4
1232,61.6,-10.26678,-0.3464186,0.009101626,0,0,0,0,0,10.26651,43.74311,0.3464186,0,57.52417,-10.26678,5120.292,24254.1
1254,62.7,-10.44997,-0.3539989,0.009300789,0,0,0,0,0,10.44971,44.52368,0.353999,0,58.9214,-10.44997,5159.735,24350.3
1276,63.8,-10.63371,-0.3611167,0.009487798,0,0,0,0,0,10.63344,45.30652,0.3611167,0,60.34257,-10.63371,5189.207,24410.7
1298,64.9,-10.81691,-0.3692302,0.009700968,0,0,0,0,0,10.81664,46.08709,0.3692302,0,61.78002,-10.81691,5230.074,24536.5
1320,66.0,-11.00024,-0.3782811,0.009938766,0,0,0,0,0,10.99997,46.86823,0.3782811,0,63.23951,-11.00024,5280.643,24719
1342,67.10001,-11.18357,-0.3875675,0.01018275,0,0,0,0,0,11.18331,47.64936,0.3875675,0,64.72061,-11.18357,5330.735,24910.6
1364,68.20001,-11.36677,-0.3966395,0.01042111,0,0,0,0,0,11.36651,48.42994,0.3966395,0,66.22288,-11.36677,5374.171,25082.8
1386,69.3,-11.55037,-0.407378,0.01070324,0,0,0,0,0,11.55011,49.21221,0.407378,0,67.75142,-11.55037,5435.941,25352.4
1408,70.4,-11.73371,-0.4192102,0.01101412,0,0,0,0,0,11.73344,49.99335,0.4192102,0,69.30142,-11.73371,5507.791,25681.1
1430,71.5,-11.91677,-0.4305878,0.01131305,0,0,0,0,0,11.9165,50.77335,0.4305879,0,70.8735,-11.91677,5569.034,25972.9
1452,72.60001,-12.10037,-0.444037,0.0116664,0,0,0,0,0,12.1001,51.55562,0.444037,0,72.47538,-12.10037,5651.717,26377.7
1474,73.70001,-12.28357,-0.459098,0.01206211,0,0,0,0,0,12.2833,52.33619,0.459098,0,74.09978,-12.28357,5749.26,26865.7
1496,74.8,-12.46677,-0.4735421,0.0124416,0,0,0,0,0,12.4665,53.11676,0.4735421,0,75.75098,-12.46677,5833.028,27303.7
1518,75.9,-12.65037,-0.4896994,0.01286611,0,0,0,0,0,12.6501,53.89903,0.4896994,0,77.43362,-12.65037,5931.403,27825.5
1540,77.0,-12.8337,-0.5040335,0.01324272,0,0,0,0,0,12.83344,54.68017,0.5040335,0,79.14254,-12.8337,6001.579,28230.8
1562,78.10001,-13.01677,-0.5184705,0.01362203,0,0,0,0,0,13.0165,55.46017,0.5184705,0,80.87863,-13.01677,6067.23,28631
1584,79.20001,-13.2005,-0.5356657,0.01407381,0,0,0,0,0,13.20023,56.24301,0.5356657,0,82.65187,-13.2005,6158.276,29168.9
1606,80.3,-13.38343,-0.5515243,0.01449047,0,0,0,0,0,13.38317,57.02244,0.5515243,0,84.44921,-13.38343,6227.65,29621.9
1628,81.4,-13.56677,-0.5658845,0.01486776,0,0,0,0,0,13.5665,57.80358,0.5658845,0,86.28348,-13.56677,6273.663,29982.5
1650,82.50001,-13.75037,-0.5818162,0.01528634,0,0,0,0,0,13.7501,58.58585,0.5818162,0,88.15476,-13.75037,6330.709,30415
1672,83.60001,-13.9337,-0.6006172,0.01578031,0,0,0,0,0,13.93343,59.36699,0.6006172,0,90.05895,-13.9337,6412.015,30984.7
1694,84.70001,-14.11717,-0.6217827,0.0163364,0,0,0,0,0,14.1169,60.1487,0.6217827,0,92.00151,-14.11717,6510.27,31659.7
1716,85.8,-14.29983,-0.6447277,0.01693925,0,0,0,0,0,14.29957,60.92699,0.6447278,0,93.97383,-14.29983,6618.674,32408.6
1738,86.9,-14.48356,-0.6678179,0.01754591,0,0,0,0,0,14.4833,61.70984,0.667818,0,95.99771,-14.48356,6718.358,33143.5
1760,88.00001,-14.66703,-0.6921217,0.01818445,0,0,0,0,0,14.66676,62.49154,0.6921217,0,98.06036,-14.66703,6820.709,33920
1782,89.10001,-14.85023,-0.7136914,0.01875117,0,0,0,0,0,14.84996,63.27211,0.7136915,0,100.1634,-14.85023,6886.909,34545.6
1804,90.15201,-15.0257,-0.7365464,0.01935165,0,0,0,0,0,15.02543,64.01973,0.7365464,0,102.2199,-15.0257,6962.775,35235.5