File: GFBaking/em/1_g7_2.csv
,Time sec,Extension mm,Load kgf,Compressive stress MPa,Cycle Count ,Total Cycle Count ,Repetitions Count ,Marked Data ,PIP Count ,Compressive extension mm,Compressive strain %,Compressive load kgf,Displacement (Strain 1) mm,True strain %,Corrected Position mm,True stress Pa,Elastic Modulus
0,0.0,0.0,-0.1325191,0.003681607,0,0,0,0,0,0.0,0.0,0.1325191,0,0.0,0.0,3681.607,inf
22,1.1,-0.1835995,-0.1643882,0.004566987,0,0,0,0,0,0.1835995,0.7512257,0.1643882,0,0.7540616,-0.1835995,4532.678,643586
44,2.2,-0.3670658,-0.1878032,0.005217494,0,0,0,0,0,0.3670658,1.501906,0.1878032,0,1.513299,-0.3670658,5139.132,367762
66,3.3,-0.5499987,-0.2076472,0.005768795,0,0,0,0,0,0.5499986,2.250404,0.2076472,0,2.276112,-0.5499987,5638.973,271376
88,4.4,-0.7334649,-0.2252057,0.006256601,0,0,0,0,0,0.7334649,3.001084,0.2252057,0,3.047038,-0.7334649,6068.835,220703
110,5.5,-0.9167978,-0.2407641,0.00668884,0,0,0,0,0,0.9167978,3.751218,0.2407641,0,3.823387,-0.9167978,6437.927,188767
132,6.6,-1.099997,-0.2540967,0.007059241,0,0,0,0,0,1.099997,4.500807,0.2540967,0,4.605239,-1.099997,6741.519,166041
154,7.7,-1.28373,-0.2678575,0.007441541,0,0,0,0,0,1.28373,5.252579,0.2678575,0,5.395556,-1.28373,7050.668,149981
176,8.8,-1.466663,-0.2806987,0.007798292,0,0,0,0,0,1.466663,6.001077,0.2806987,0,6.188686,-1.466663,7330.31,137568
198,9.900001,-1.649996,-0.2930113,0.008140357,0,0,0,0,0,1.649996,6.751211,0.2930113,0,6.989911,-1.649996,7590.785,127646
220,11.0,-1.833596,-0.3027006,0.008409541,0,0,0,0,0,1.833596,7.502437,0.3027006,0,7.798789,-1.833596,7778.621,118663
242,12.1,-2.016795,-0.3100932,0.008614921,0,0,0,0,0,2.016795,8.252026,0.3100932,0,8.612478,-2.016795,7904.016,110519
264,13.2,-2.200261,-0.3193809,0.00887295,0,0,0,0,0,2.200261,9.002706,0.3193809,0,9.434041,-2.200261,8074.144,104338
286,14.3,-2.383594,-0.3292857,0.009148123,0,0,0,0,0,2.383594,9.75284,0.3292857,0,10.26181,-2.383594,8255.921,99299.7
308,15.4,-2.566527,-0.3373935,0.009373371,0,0,0,0,0,2.566527,10.50134,0.3373935,0,11.09465,-2.566527,8389.041,94492.7
330,16.5,-2.75026,-0.3435979,0.009545741,0,0,0,0,0,2.75026,11.25311,0.3435979,0,11.93818,-2.75026,8471.548,89801.6
352,17.6,-2.93346,-0.3448539,0.009580635,0,0,0,0,0,2.93346,12.0027,0.3448539,0,12.7864,-2.93346,8430.699,84501.1
374,18.7,-3.116659,-0.3474669,0.009653226,0,0,0,0,0,3.116659,12.75229,0.3474669,0,13.64188,-3.116659,8422.219,80136.7
396,19.8,-3.300392,-0.3506135,0.009740643,0,0,0,0,0,3.300392,13.50406,0.3506134,0,14.50727,-3.300392,8425.261,76360.8
418,20.9,-3.483592,-0.3529383,0.009805231,0,0,0,0,0,3.483592,14.25365,0.3529383,0,15.37766,-3.483592,8407.628,72824.7
440,22.0,-3.666924,-0.3519218,0.009776991,0,0,0,0,0,3.666924,15.00378,0.3519218,0,16.25634,-3.666924,8310.072,68984.5
462,23.1,-3.850124,-0.349047,0.009697126,0,0,0,0,0,3.850124,15.75337,0.349047,0,17.14216,-3.850124,8169.502,65165.3
484,24.2,-4.033457,-0.3498518,0.009719484,0,0,0,0,0,4.033457,16.50351,0.3498518,0,18.03656,-4.033457,8115.428,62346.8
506,25.3,-4.21679,-0.352158,0.009783553,0,0,0,0,0,4.21679,17.25364,0.352158,0,18.93902,-4.21679,8095.534,60029.2
528,26.4,-4.400256,-0.3540231,0.00983537,0,0,0,0,0,4.400256,18.00432,0.3540231,0,19.85036,-4.400256,8064.578,57831
550,27.5,-4.583322,-0.3548762,0.009859069,0,0,0,0,0,4.583323,18.75336,0.3548762,0,20.76808,-4.583322,8010.162,55654.9
572,28.6,-4.766655,-0.3565474,0.009905498,0,0,0,0,0,4.766655,19.5035,0.3565474,0,21.69565,-4.766655,7973.58,53766.4
594,29.7,-4.949988,-0.3587245,0.009965983,0,0,0,0,0,4.949988,20.25363,0.3587245,0,22.6319,-4.949988,7947.509,52091.2
616,30.8,-5.133721,-0.3624051,0.01006823,0,0,0,0,0,5.133721,21.00541,0.3624051,0,23.57908,-5.133721,7953.361,50742.2
638,31.9,-5.316921,-0.3679678,0.01022278,0,0,0,0,0,5.316921,21.75499,0.3679678,0,24.53252,-5.316921,7998.812,49745.9
660,33.0,-5.50012,-0.3740417,0.01039152,0,0,0,0,0,5.50012,22.50458,0.3740417,0,25.49514,-5.50012,8052.953,48882.7
682,34.1,-5.683453,-0.3803038,0.01056549,0,0,0,0,0,5.683453,23.25472,0.3803039,0,26.46783,-5.683453,8108.518,48097.9
704,35.2,-5.866652,-0.3875078,0.01076563,0,0,0,0,0,5.866652,24.00431,0.3875078,0,27.44935,-5.866652,8181.418,47478.5
726,36.3,-6.050252,-0.3940201,0.01094655,0,0,0,0,0,6.050252,24.75553,0.3940201,0,28.44278,-6.050252,8236.676,46811.5
748,37.4,-6.233851,-0.4007255,0.01113284,0,0,0,0,0,6.233851,25.50676,0.4007255,0,29.44618,-6.233851,8293.215,46205.9
770,38.5,-6.416651,-0.4069302,0.01130522,0,0,0,0,0,6.416651,26.25471,0.4069301,0,30.4553,-6.416651,8337.066,45584.7
792,39.6,-6.60025,-0.4136534,0.011492,0,0,0,0,0,6.600251,27.00594,0.4136534,0,31.4792,-6.60025,8388.479,45048.8
814,40.7,-6.783317,-0.4201735,0.01167314,0,0,0,0,0,6.783317,27.75498,0.4201735,0,32.51068,-6.783317,8433.264,44524
836,41.8,-6.966783,-0.4277652,0.01188405,0,0,0,0,0,6.966783,28.50566,0.4277652,0,33.55519,-6.966783,8496.424,44134.7
858,42.9,-7.150383,-0.4357291,0.0121053,0,0,0,0,0,7.150383,29.25689,0.4357291,0,34.6115,-7.150383,8563.668,43802.1
880,44.0,-7.333449,-0.442307,0.01228805,0,0,0,0,0,7.333448,30.00593,0.4423071,0,35.67596,-7.333449,8600.906,43353.4
902,45.1,-7.516648,-0.4483935,0.01245714,0,0,0,0,0,7.516648,30.75552,0.4483935,0,36.75267,-7.516648,8625.883,42878.8
924,46.2,-7.700248,-0.4555291,0.01265538,0,0,0,0,0,7.700248,31.50674,0.4555291,0,37.84349,-7.700248,8668.083,42522.5
946,47.3,-7.883314,-0.4621223,0.01283855,0,0,0,0,0,7.883314,32.25579,0.4621223,0,38.94311,-7.883314,8697.375,42136.2
968,48.4,-8.066914,-0.4677911,0.01299604,0,0,0,0,0,8.066914,33.00701,0.4677911,0,40.05822,-8.066914,8706.436,41682.3
990,49.5,-8.250247,-0.4702869,0.01306538,0,0,0,0,0,8.250247,33.75715,0.4702869,0,41.18426,-8.250247,8654.879,40973.5
1012,50.6,-8.433313,-0.4726682,0.01313153,0,0,0,0,0,8.433313,34.50619,0.4726682,0,42.32146,-8.433313,8600.342,40287
1034,51.7,-8.617045,-0.4771127,0.01325501,0,0,0,0,0,8.617045,35.25796,0.4771127,0,43.47594,-8.617045,8581.563,39798.8
1056,52.8,-8.800112,-0.4797081,0.01332712,0,0,0,0,0,8.800112,36.007,0.4797081,0,44.63965,-8.800112,8528.42,39182.9
1078,53.9,-8.983445,-0.4816527,0.01338114,0,0,0,0,0,8.983445,36.75714,0.4816527,0,45.8188,-8.983445,8462.616,38538.8
1100,55.0,-9.167044,-0.4829726,0.01341781,0,0,0,0,0,9.167045,37.50837,0.4829727,0,47.01375,-9.167044,8385.008,37870.5
1122,56.1,-9.350111,-0.4855347,0.01348899,0,0,0,0,0,9.350111,38.25741,0.4855347,0,48.21962,-9.350111,8328.45,37325.9
1144,57.2,-9.533443,-0.4875691,0.01354551,0,0,0,0,0,9.533443,39.00754,0.4875691,0,49.442,-9.533443,8261.737,36761.5
1166,58.3,-9.716776,-0.4879868,0.01355711,0,0,0,0,0,9.716776,39.75768,0.4879868,0,50.6795,-9.716776,8167.118,36098.8
1188,59.4,-9.899976,-0.4890211,0.01358585,0,0,0,0,0,9.899976,40.50727,0.4890211,0,51.9316,-9.899976,8082.591,35505.9
1210,60.5,-10.08358,-0.4892609,0.01359251,0,0,0,0,0,10.08358,41.25849,0.4892609,0,53.20236,-10.08358,7984.443,34876.5
1232,61.6,-10.26691,-0.4891515,0.01358947,0,0,0,0,0,10.26691,42.00863,0.4891515,0,54.48759,-10.26691,7880.72,34246.1
1254,62.7,-10.45024,-0.4883562,0.01356737,0,0,0,0,0,10.45024,42.75876,0.4883562,0,55.78956,-10.45024,7766.132,33590.6
1276,63.8,-10.63331,-0.4923732,0.01367897,0,0,0,0,0,10.63331,43.5078,0.4923732,0,57.10677,-10.63331,7727.552,33283.8
1298,64.9,-10.81664,-0.4991547,0.01386738,0,0,0,0,0,10.81664,44.25794,0.4991547,0,58.44352,-10.81664,7729.961,33170.4
1320,66.0,-11.00024,-0.508251,0.01412009,0,0,0,0,0,11.00024,45.00917,0.508251,0,59.80037,-11.00024,7764.753,33211.1
1342,67.10001,-11.18371,-0.5165201,0.01434981,0,0,0,0,0,11.18371,45.75985,0.5165201,0,61.17487,-11.18371,7783.361,33197.7
1364,68.20001,-11.36677,-0.5252281,0.01459174,0,0,0,0,0,11.36677,46.50889,0.5252281,0,62.56547,-11.36677,7805.283,33213.8
1386,69.3,-11.55011,-0.5341597,0.01483987,0,0,0,0,0,11.55011,47.25902,0.5341597,0,63.97775,-11.55011,7826.694,33242.4
1408,70.4,-11.7333,-0.5430801,0.0150877,0,0,0,0,0,11.7333,48.00861,0.5430801,0,65.40921,-11.7333,7844.304,33269.9
1430,71.5,-11.9169,-0.5536921,0.01538252,0,0,0,0,0,11.9169,48.75984,0.5536921,0,66.86466,-11.9169,7882.026,33397.4
1452,72.60001,-12.10037,-0.5658593,0.01572054,0,0,0,0,0,12.10037,49.51052,0.5658593,0,68.34051,-12.10037,7937.221,33613.8
1474,73.70001,-12.28344,-0.5787182,0.01607779,0,0,0,0,0,12.28344,50.25956,0.5787182,0,69.83519,-12.28344,7997.161,33865.3
1496,74.8,-12.46677,-0.5907822,0.01641295,0,0,0,0,0,12.46677,51.0097,0.5907822,0,71.35478,-12.46677,8040.752,34062.8
1518,75.9,-12.6501,-0.6040191,0.01678069,0,0,0,0,0,12.6501,51.75983,0.604019,0,72.89781,-12.6501,8095.032,34321.3
1540,77.0,-12.8333,-0.615121,0.01708912,0,0,0,0,0,12.8333,52.50942,0.615121,0,74.46388,-12.8333,8115.721,34453.2
1562,78.10001,-13.01717,-0.62698,0.01741858,0,0,0,0,0,13.01717,53.26174,0.62698,0,76.0607,-13.01717,8141.143,34621.4
1584,79.20001,-13.19997,-0.6409319,0.01780619,0,0,0,0,0,13.19997,54.00969,0.6409318,0,77.67394,-13.19997,8189.121,34901.7
1606,80.3,-13.3833,-0.6554949,0.01821077,0,0,0,0,0,13.3833,54.75982,0.6554949,0,79.31846,-13.3833,8238.586,35205.7
1628,81.4,-13.5669,-0.6698881,0.01861064,0,0,0,0,0,13.5669,55.51105,0.6698881,0,80.99293,-13.5669,8279.679,35491.9
1650,82.50001,-13.74997,-0.6836621,0.01899331,0,0,0,0,0,13.74997,56.26009,0.6836621,0,82.69093,-13.74997,8307.655,35739.4
1672,83.60001,-13.93357,-0.6995014,0.01943335,0,0,0,0,0,13.93357,57.01132,0.6995014,0,84.42333,-13.93357,8354.141,36085.6
1694,84.70001,-14.11703,-0.7151812,0.01986896,0,0,0,0,0,14.11703,57.762,0.7151812,0,86.18498,-14.11703,8392.253,36415
1716,85.8,-14.29997,-0.730564,0.02029632,0,0,0,0,0,14.29997,58.5105,0.730564,0,87.97297,-14.29997,8420.843,36722.3
1738,86.9,-14.48356,-0.7490084,0.02080874,0,0,0,0,0,14.48356,59.26172,0.7490084,0,89.8002,-14.48356,8477.122,37172.2
1760,88.00001,-14.6669,-0.7734259,0.0214871,0,0,0,0,0,14.6669,60.01186,0.7734259,0,91.65871,-14.6669,8592.292,37904.2
1782,89.10001,-14.84996,-0.8014147,0.02226467,0,0,0,0,0,14.84996,60.7609,0.8014147,0,93.54964,-14.84996,8736.458,38791.7
1804,90.20001,-15.0337,-0.8317866,0.02310846,0,0,0,0,0,15.0337,61.51267,0.8317866,0,95.48411,-15.0337,8893.829,39769.8
1807,90.316,-15.05276,-0.8351638,0.02320228,0,0,0,0,0,15.05276,61.59068,0.8351638,0,95.68701,-15.05276,8911.838,39880.7