File: GFBaking/em/1_g7_3.csv
,Time sec,Extension mm,Load kgf,Compressive stress MPa,Cycle Count ,Total Cycle Count ,Repetitions Count ,Marked Data ,PIP Count ,Compressive extension mm,Compressive strain %,Compressive load kgf,Displacement (Strain 1) mm,True strain %,Corrected Position mm,True stress Pa,Elastic Modulus
0,0.0,-0.000133333,-0.01051969,0.0002726243,0,0,0,0,0,-2.777726e-20,-1.084202e-19,0.01051969,0,0.0,-0.000133333,272.6243,-2.72221e+23
22,1.1,-0.1833329,-0.02270991,0.0005885416,0,0,0,0,0,0.1831995,0.7150646,0.02270991,0,0.7176334,-0.1833329,584.3332,89104.3
44,2.2,-0.3667991,-0.03641116,0.0009436181,0,0,0,0,0,0.3666658,1.43117,0.03641116,0,1.44151,-0.3667991,930.1133,71379.2
66,3.3,-0.5502653,-0.05443411,0.001410694,0,0,0,0,0,0.550132,2.147275,0.05443411,0,2.170665,-0.5502653,1380.403,71123.2
88,4.4,-0.7334649,-0.07525655,0.001950321,0,0,0,0,0,0.7333316,2.86234,0.07525655,0,2.904104,-0.7334649,1894.496,73765.1
110,5.5,-0.9170644,-0.09781007,0.002534809,0,0,0,0,0,0.9169312,3.578966,0.09781007,0,3.644582,-0.9170644,2444.089,76675.1
132,6.6,-1.100264,-0.1216433,0.003152463,0,0,0,0,0,1.100131,4.294031,0.1216433,0,4.388951,-1.100264,3017.096,79478.8
154,7.7,-1.283597,-0.1461585,0.003787789,0,0,0,0,0,1.283463,5.009615,0.1461585,0,5.139451,-1.283597,3598.035,81855.5
176,8.8,-1.46693,-0.1707921,0.004426185,0,0,0,0,0,1.466796,5.725201,0.1707921,0,5.895627,-1.46693,4172.777,83696.1
198,9.900001,-1.650129,-0.1941999,0.005032812,0,0,0,0,0,1.649996,6.440265,0.1941999,0,6.657008,-1.650129,4708.685,84600.6
220,11.0,-1.833729,-0.2171989,0.005628846,0,0,0,0,0,1.833596,7.156891,0.2171989,0,7.425912,-1.833729,5225.995,85145.4
242,12.1,-2.017062,-0.2396489,0.006210651,0,0,0,0,0,2.016928,7.872476,0.2396489,0,8.199644,-2.017062,5721.719,85406.8
264,13.2,-2.200261,-0.2598855,0.006735097,0,0,0,0,0,2.200128,8.587541,0.2598855,0,8.97884,-2.200261,6156.718,84906.6
286,14.3,-2.383728,-0.2801901,0.007261301,0,0,0,0,0,2.383594,9.303646,0.2801901,0,9.765303,-2.383728,6585.736,84494.4
308,15.4,-2.566794,-0.2983476,0.007731865,0,0,0,0,0,2.56666,10.01819,0.2983476,0,10.55626,-2.566794,6957.272,83552.9
330,16.5,-2.750393,-0.3149638,0.008162485,0,0,0,0,0,2.75026,10.73482,0.3149638,0,11.35587,-2.750393,7286.257,82317.9
352,17.6,-2.933593,-0.3303984,0.008562482,0,0,0,0,0,2.933459,11.44988,0.3303984,0,12.16015,-2.933593,7582.088,80959
374,18.7,-3.116792,-0.3443117,0.008923054,0,0,0,0,0,3.116659,12.16495,0.3443117,0,12.97095,-3.116792,7837.569,79409
396,19.8,-3.300125,-0.3565286,0.009239663,0,0,0,0,0,3.299992,12.88053,0.3565286,0,13.78898,-3.300125,8049.545,77658.5
418,20.9,-3.483592,-0.3673249,0.009519455,0,0,0,0,0,3.483459,13.59664,0.3673249,0,14.61436,-3.483592,8225.129,75796.1
440,22.0,-3.666924,-0.3771098,0.009773038,0,0,0,0,0,3.666791,14.31222,0.3771098,0,15.446,-3.666924,8374.3,73924.6
462,23.1,-3.850524,-0.3848669,0.009974068,0,0,0,0,0,3.85039,15.02885,0.3848669,0,16.28584,-3.850524,8475.08,71847.7
484,24.2,-4.033323,-0.3909898,0.01013275,0,0,0,0,0,4.03319,15.74235,0.3909898,0,17.12908,-4.033323,8537.615,69682.6
506,25.3,-4.216923,-0.397323,0.01029687,0,0,0,0,0,4.216789,16.45897,0.397323,0,17.98324,-4.216923,8602.114,67728.1
528,26.4,-4.400122,-0.4025279,0.01043176,0,0,0,0,0,4.399989,17.17404,0.4025279,0,18.84286,-4.400122,8640.208,65758.5
550,27.5,-4.583456,-0.4059954,0.01052163,0,0,0,0,0,4.583322,17.88963,0.4059954,0,19.71058,-4.583456,8639.347,63671.9
572,28.6,-4.767055,-0.4095592,0.01061398,0,0,0,0,0,4.766922,18.60625,0.4095592,0,20.58717,-4.767055,8639.12,61757
594,29.7,-4.950122,-0.4115532,0.01066566,0,0,0,0,0,4.949988,19.3208,0.4115532,0,21.46894,-4.950122,8604.97,59762.6
616,30.8,-5.133587,-0.4136714,0.01072055,0,0,0,0,0,5.133454,20.0369,0.4136714,0,22.36049,-5.133587,8572.488,57923.3
638,31.9,-5.316921,-0.4145162,0.01074245,0,0,0,0,0,5.316787,20.75249,0.4145162,0,23.25942,-5.316921,8513.123,56040.2
660,33.0,-5.50012,-0.4143688,0.01073863,0,0,0,0,0,5.499987,21.46755,0.4143688,0,24.16583,-5.50012,8433.308,54154.3
682,34.1,-5.683586,-0.4129533,0.01070195,0,0,0,0,0,5.683453,22.18366,0.4129533,0,25.08187,-5.683586,8327.863,52227.1
704,35.2,-5.867052,-0.4141042,0.01073177,0,0,0,0,0,5.866919,22.89976,0.4141042,0,26.00638,-5.867052,8274.22,50734.9
726,36.3,-6.049985,-0.4175523,0.01082113,0,0,0,0,0,6.049852,23.61378,0.4175523,0,26.93679,-6.049985,8265.852,49610.5
748,37.4,-6.233585,-0.4189277,0.01085677,0,0,0,0,0,6.233451,24.33041,0.4189277,0,27.87938,-6.233585,8215.277,48307.9
770,38.5,-6.416784,-0.4206801,0.01090219,0,0,0,0,0,6.41665,25.04548,0.4206801,0,28.82886,-6.416784,8171.684,47125
792,39.6,-6.600117,-0.4231542,0.01096631,0,0,0,0,0,6.599984,25.76106,0.4231542,0,29.78814,-6.600117,8141.271,46085.4
814,40.7,-6.783584,-0.4249698,0.01101336,0,0,0,0,0,6.78345,26.47717,0.4249698,0,30.75742,-6.783584,8097.333,45031.3
836,41.8,-6.966916,-0.4278479,0.01108795,0,0,0,0,0,6.966783,27.19275,0.4278479,0,31.73547,-6.966916,8072.829,44143.3
858,42.9,-7.150116,-0.4303706,0.01115332,0,0,0,0,0,7.149982,27.90782,0.4303706,0,32.72245,-7.150116,8040.675,43265.8
880,44.0,-7.333449,-0.4331031,0.01122414,0,0,0,0,0,7.333315,28.6234,0.4331031,0,33.72001,-7.333449,8011.409,42452
902,45.1,-7.516782,-0.4335014,0.01123446,0,0,0,0,0,7.516649,29.33899,0.4335014,0,34.72762,-7.516782,7938.385,41454.7
924,46.2,-7.700515,-0.4355071,0.01128644,0,0,0,0,0,7.700381,30.05613,0.4355071,0,35.74772,-7.700515,7894.173,40652.8
946,47.3,-7.883715,-0.4391755,0.01138151,0,0,0,0,0,7.883581,30.7712,0.4391755,0,36.77532,-7.883715,7879.282,40042.6
968,48.4,-8.066914,-0.4450163,0.01153288,0,0,0,0,0,8.066781,31.48626,0.4450163,0,37.81359,-8.066914,7901.605,39653.6
990,49.5,-8.250114,-0.4506405,0.01167863,0,0,0,0,0,8.24998,32.20133,0.4506405,0,38.86276,-8.250114,7917.958,39263.1
1012,50.6,-8.433313,-0.4573018,0.01185126,0,0,0,0,0,8.43318,32.91639,0.4573018,0,39.92305,-8.433313,7950.255,38977.9
1034,51.7,-8.617045,-0.4640161,0.01202527,0,0,0,0,0,8.616912,33.63354,0.4640161,0,40.99783,-8.617045,7980.746,38706.9
1056,52.8,-8.800379,-0.4697188,0.01217306,0,0,0,0,0,8.800246,34.34912,0.4697188,0,42.08193,-8.800379,7991.72,38366.3
1078,53.9,-8.983445,-0.4747079,0.01230235,0,0,0,0,0,8.983312,35.06367,0.474708,0,43.17629,-8.983445,7988.698,37983.7
1100,55.0,-9.166645,-0.485355,0.01257828,0,0,0,0,0,9.166511,35.77873,0.485355,0,44.28357,-9.166645,8077.931,38059.5
1122,56.1,-9.349978,-0.4952548,0.01283484,0,0,0,0,0,9.349843,36.49432,0.4952548,0,45.40408,-9.349978,8150.852,38074.3
1144,57.2,-9.53371,-0.5062079,0.0131187,0,0,0,0,0,9.533576,37.21146,0.5062079,0,46.53976,-9.53371,8237.038,38166.3
1166,58.3,-9.717177,-0.515166,0.01335085,0,0,0,0,0,9.717044,37.92757,0.515166,0,47.68683,-9.717177,8287.198,38108.4
1188,59.4,-9.900109,-0.5237958,0.0135745,0,0,0,0,0,9.899976,38.64159,0.5237958,0,48.8438,-9.900109,8329.096,38030.8
1210,60.5,-10.08344,-0.5327389,0.01380626,0,0,0,0,0,10.08331,39.35718,0.5327389,0,50.01689,-10.08344,8372.508,37976.8
1232,61.6,-10.26678,-0.5410036,0.01402045,0,0,0,0,0,10.26664,40.07276,0.5410036,0,51.2039,-10.26678,8402.068,37877.3
1254,62.7,-10.45011,-0.5468783,0.0141727,0,0,0,0,0,10.44998,40.78835,0.5468783,0,52.40518,-10.45011,8391.887,37616.9
1276,63.8,-10.63371,-0.5523583,0.01431471,0,0,0,0,0,10.63357,41.50497,0.5523583,0,53.62284,-10.63371,8373.396,37337.8
1298,64.9,-10.81677,-0.5591313,0.01449024,0,0,0,0,0,10.81664,42.21952,0.5591313,0,54.85191,-10.81677,8372.53,37156
1320,66.0,-11.00024,-0.5645832,0.01463153,0,0,0,0,0,11.00011,42.93562,0.5645832,0,56.09902,-11.00024,8349.39,36892.5
1342,67.10001,-11.18371,-0.5707255,0.01479071,0,0,0,0,0,11.18357,43.65173,0.5707254,0,57.36186,-11.18371,8334.309,36682.1
1364,68.20001,-11.36664,-0.5769708,0.01495256,0,0,0,0,0,11.36651,44.36575,0.5769708,0,58.63712,-11.36664,8318.744,36486.7
1386,69.3,-11.55037,-0.5838259,0.01513022,0,0,0,0,0,11.55024,45.0829,0.5838259,0,59.93454,-11.55037,8309.076,36332.9
1408,70.4,-11.73371,-0.591124,0.01531935,0,0,0,0,0,11.73357,45.79848,0.591124,0,61.24613,-11.73371,8303.32,36212.3
1430,71.5,-11.91664,-0.5980059,0.0154977,0,0,0,0,0,11.9165,46.5125,0.598006,0,62.57223,-11.91664,8289.332,36071.5
1452,72.60001,-12.10037,-0.6056551,0.01569593,0,0,0,0,0,12.10024,47.22965,0.6056551,0,63.92207,-12.10037,8282.798,35978.1
1474,73.70001,-12.28357,-0.6132113,0.01589175,0,0,0,0,0,12.28344,47.94472,0.6132113,0,65.28639,-12.28357,8272.498,35883.7
1496,74.8,-12.46664,-0.6189305,0.01603997,0,0,0,0,0,12.4665,48.65926,0.6189305,0,66.66857,-12.46664,8235.041,35686.6
1518,75.9,-12.65037,-0.6239152,0.01616916,0,0,0,0,0,12.65024,49.37641,0.6239152,0,68.07525,-12.65037,8185.407,35451.5
1540,77.0,-12.8337,-0.6303572,0.0163361,0,0,0,0,0,12.83357,50.092,0.6303572,0,69.49888,-12.8337,8153.023,35305.8
1562,78.10001,-13.0169,-0.637609,0.01652404,0,0,0,0,0,13.01677,50.80706,0.637609,0,70.94201,-13.0169,8128.661,35209.4
1584,79.20001,-13.20023,-0.6454881,0.01672823,0,0,0,0,0,13.2001,51.52264,0.6454881,0,72.40734,-13.20023,8109.404,35149.4
1606,80.3,-13.3833,-0.6529839,0.01692249,0,0,0,0,0,13.38317,52.23719,0.6529839,0,73.89228,-13.3833,8082.657,35071.2
1628,81.4,-13.5669,-0.6615707,0.01714502,0,0,0,0,0,13.56677,52.95381,0.6615707,0,75.40404,-13.5669,8066.078,35051.5
1650,82.50001,-13.75037,-0.6721355,0.01741881,0,0,0,0,0,13.75023,53.66992,0.6721355,0,76.93788,-13.75037,8070.15,35136.1
1672,83.60001,-13.93357,-0.6818654,0.01767097,0,0,0,0,0,13.93343,54.38498,0.6818654,0,78.49332,-13.93357,8060.616,35176.1
1694,84.70001,-14.11677,-0.6916585,0.01792477,0,0,0,0,0,14.11663,55.10005,0.6916585,0,80.07335,-14.11677,8048.211,35218.3
1716,85.8,-14.3001,-0.7009842,0.01816645,0,0,0,0,0,14.29996,55.81563,0.7009842,0,81.67991,-14.3001,8026.73,35235.5
1738,86.9,-14.48356,-0.7096074,0.01838992,0,0,0,0,0,14.48343,56.53174,0.7096074,0,83.31391,-14.48356,7993.78,35217.1
1760,88.00001,-14.66703,-0.7168823,0.01857845,0,0,0,0,0,14.6669,57.24784,0.7168823,0,84.97505,-14.66703,7942.69,35133.1
1782,89.10001,-14.8501,-0.7235315,0.01875077,0,0,0,0,0,14.84996,57.96239,0.7235315,0,86.66054,-14.8501,7882.377,35021.9
1803,90.12,-15.0205,-0.7293216,0.01890083,0,0,0,0,0,15.02036,58.62749,0.7293216,0,88.25535,-15.0205,7819.747,34901.7