File: GFBaking/em/xg2.csv
,Time sec,Extension mm,Load kgf,Compressive stress MPa,Cycle Count ,Total Cycle Count ,Repetitions Count ,Marked Data ,PIP Count ,Compressive extension mm,Compressive strain %,Compressive load kgf,Displacement (Strain 1) mm,True strain %,Corrected Position mm,True stress Pa,Elastic Modulus
0,0.0,-1.080397,-0.00641651,0.0001356804,0,0,0,0,0,-1.964651e-16,-8.881784e-16,0.00641651,0,0.0,-1.080397,135.6804,-2.34758e+19
20,1.0,-1.24693,-0.02020936,0.0004273373,0,0,0,0,0,0.1665329,0.7528614,0.02020936,0,0.7557097,-1.24693,424.12,87228.8
40,2.0,-1.413597,-0.03123402,0.0006604593,0,0,0,0,0,0.3331992,1.506325,0.03123402,0,1.517786,-1.413597,650.5107,67380
60,3.0,-1.580263,-0.04268079,0.0009025073,0,0,0,0,0,0.4998654,2.259789,0.04268079,0,2.285714,-1.580263,882.1125,61374.3
80,4.0,-1.747196,-0.05475545,0.001157832,0,0,0,0,0,0.6667984,3.014459,0.05475545,0,3.060828,-1.747196,1122.93,59025.6
100,5.0,-1.913729,-0.06677818,0.001412059,0,0,0,0,0,0.8333313,3.76732,0.06677818,0,3.840118,-1.913729,1358.862,57600.2
120,6.0,-2.080128,-0.0789369,0.001669161,0,0,0,0,0,0.9997309,4.519579,0.0789369,0,4.624898,-2.080128,1593.722,56755
140,7.0,-2.247328,-0.09196985,0.00194475,0,0,0,0,0,1.166931,5.275455,0.09196986,0,5.419703,-2.247328,1842.155,56651
160,8.0,-2.413728,-0.1047757,0.002215535,0,0,0,0,0,1.33333,6.027713,0.1047757,0,6.217027,-2.413728,2081.989,56484.6
180,9.0,-2.58026,-0.1166186,0.00246596,0,0,0,0,0,1.499863,6.780574,0.1166186,0,7.021405,-2.58026,2298.754,55888.6
200,10.0,-2.746927,-0.1289754,0.002727252,0,0,0,0,0,1.666529,7.534038,0.1289754,0,7.832959,-2.746927,2521.779,55629
220,11.0,-2.913593,-0.141489,0.002991859,0,0,0,0,0,1.833195,8.287502,0.141489,0,8.651152,-2.913593,2743.908,55478.1
240,12.0,-3.080659,-0.1541746,0.003260101,0,0,0,0,0,2.000262,9.042774,0.1541746,0,9.478083,-3.080659,2965.298,55403
260,13.0,-3.247059,-0.1663083,0.003516675,0,0,0,0,0,2.166662,9.795033,0.1663083,0,10.30857,-3.247059,3172.215,55173.4
280,14.0,-3.413458,-0.178198,0.003768088,0,0,0,0,0,2.333061,10.54729,0.178198,0,11.14601,-3.413458,3370.657,54901.5
300,15.0,-3.580525,-0.1900122,0.004017906,0,0,0,0,0,2.500127,11.30256,0.1900122,0,11.99392,-3.580525,3563.78,54629.4
320,16.0,-3.747191,-0.2021492,0.004274548,0,0,0,0,0,2.666794,12.05603,0.2021492,0,12.84703,-3.747191,3759.207,54486.6
340,17.0,-3.913724,-0.2143487,0.004532513,0,0,0,0,0,2.833327,12.80889,0.2143487,0,13.70678,-3.913724,3951.948,54379
360,18.0,-4.080123,-0.2253105,0.004764306,0,0,0,0,0,2.999726,13.56115,0.2253105,0,14.57329,-4.080123,4118.211,53989.2
380,19.0,-4.246923,-0.2358788,0.004987779,0,0,0,0,0,3.166526,14.31522,0.2358788,0,15.44949,-4.246923,4273.768,53544.3
400,20.0,-4.413856,-0.2461295,0.005204535,0,0,0,0,0,3.333459,15.06989,0.2461295,0,16.33415,-4.413856,4420.217,53073.3
420,21.0,-4.580389,-0.2555127,0.005402947,0,0,0,0,0,3.499991,15.82275,0.2555127,0,17.22454,-4.580389,4548.052,52475.1
440,22.0,-4.746789,-0.264097,0.005584467,0,0,0,0,0,3.666391,16.57501,0.264097,0,18.12222,-4.746789,4658.842,51776.4
460,23.0,-4.913855,-0.2723296,0.005758549,0,0,0,0,0,3.833458,17.33028,0.2723296,0,19.03168,-4.913855,4760.577,51063.6
480,24.0,-5.080387,-0.2796217,0.005912744,0,0,0,0,0,3.99999,18.08314,0.2796217,0,19.94653,-5.080387,4843.535,50248.1
500,25.0,-5.246921,-0.2858402,0.006044239,0,0,0,0,0,4.166523,18.836,0.2858402,0,20.86984,-5.246921,4905.746,49312.5
520,26.0,-5.413454,-0.291475,0.006163389,0,0,0,0,0,4.333056,19.58886,0.291475,0,21.80175,-5.413454,4956.051,48352
540,27.0,-5.580253,-0.2968946,0.006277989,0,0,0,0,0,4.499856,20.34293,0.2968946,0,22.74394,-5.580253,5000.862,47425.4
560,28.0,-5.747319,-0.3028451,0.006403815,0,0,0,0,0,4.666922,21.0982,0.3028451,0,23.69661,-5.747319,5052.726,46644.2
580,29.0,-5.913719,-0.3087171,0.006527981,0,0,0,0,0,4.833322,21.85046,0.3087171,0,24.6546,-5.913719,5101.587,45911.6
600,30.0,-6.080252,-0.3149661,0.006660121,0,0,0,0,0,4.999854,22.60332,0.3149661,0,25.62263,-6.080252,5154.713,45280.8
620,31.0,-6.247052,-0.3209541,0.00678674,0,0,0,0,0,5.166654,23.35739,0.3209541,0,26.6017,-6.247052,5201.535,44652
640,32.0,-6.413851,-0.3270655,0.006915969,0,0,0,0,0,5.333453,24.11145,0.3270655,0,27.59044,-6.413851,5248.428,44079.2
660,33.0,-6.580384,-0.3335282,0.007052624,0,0,0,0,0,5.499987,24.86432,0.3335282,0,28.58746,-6.580384,5299.038,43589.1
680,34.0,-6.746917,-0.3387931,0.007163955,0,0,0,0,0,5.66652,25.61718,0.3387932,0,29.59452,-6.746917,5328.752,42976
700,35.0,-6.913583,-0.3442162,0.007278628,0,0,0,0,0,5.833186,26.37064,0.3442162,0,30.61263,-6.913583,5359.207,42416.3
720,36.0,-7.080516,-0.3505182,0.007411887,0,0,0,0,0,6.000118,27.12531,0.3505182,0,31.64288,-7.080516,5401.39,41991.2
740,37.0,-7.246916,-0.3556751,0.007520934,0,0,0,0,0,6.166518,27.87757,0.3556751,0,32.68051,-7.246916,5424.28,41459.2
760,38.0,-7.413449,-0.3614656,0.007643376,0,0,0,0,0,6.333051,28.63043,0.3614656,0,33.72986,-7.413449,5455.045,41026.2
780,39.0,-7.580648,-0.3683363,0.007788661,0,0,0,0,0,6.500251,29.3863,0.3683363,0,34.79461,-7.580648,5499.861,40730.7
800,40.0,-7.747048,-0.3753112,0.007936147,0,0,0,0,0,6.66665,30.13856,0.3753111,0,35.86564,-7.747048,5544.307,40466.1
820,41.0,-7.913581,-0.382536,0.008088919,0,0,0,0,0,6.833184,30.89143,0.382536,0,36.94914,-7.913581,5590.137,40239.9
840,42.0,-8.08038,-0.3893604,0.008233227,0,0,0,0,0,6.999982,31.64549,0.3893604,0,38.04626,-8.08038,5627.782,39981.8
860,43.0,-8.246914,-0.3963508,0.008381042,0,0,0,0,0,7.166516,32.39835,0.3963508,0,39.15379,-8.246914,5665.722,39753.8
880,44.0,-8.413847,-0.4037411,0.008537313,0,0,0,0,0,7.333449,33.15303,0.4037411,0,40.27642,-8.413847,5706.935,39573.3
900,45.0,-8.580246,-0.410677,0.008683976,0,0,0,0,0,7.499849,33.90528,0.410677,0,41.40814,-8.580246,5739.649,39360
920,46.0,-8.747046,-0.418601,0.008851533,0,0,0,0,0,7.666648,34.65935,0.418601,0,42.55558,-8.747046,5783.649,39246.6
940,47.0,-8.913712,-0.4266851,0.009022475,0,0,0,0,0,7.833314,35.41281,0.4266851,0,43.71541,-8.913712,5827.363,39153.4
960,48.0,-9.080512,-0.4358892,0.009217101,0,0,0,0,0,8.000114,36.16688,0.4358892,0,44.8898,-9.080512,5883.563,39164
980,49.0,-9.247044,-0.4438047,0.009384478,0,0,0,0,0,8.166648,36.91974,0.4438047,0,46.07624,-9.247044,5919.753,39062.1
1000,50.0,-9.413578,-0.4525708,0.009569842,0,0,0,0,0,8.33318,37.6726,0.4525708,0,47.27691,-9.413578,5964.633,39037.6
1020,51.0,-9.580377,-0.4626328,0.009782609,0,0,0,0,0,8.499979,38.42667,0.4626328,0,48.49413,-9.580377,6023.478,39122.4
1040,52.0,-9.747176,-0.4732842,0.01000784,0,0,0,0,0,8.666779,39.18074,0.4732842,0,49.72636,-9.747176,6086.693,39252.9
1060,53.0,-9.913709,-0.4833038,0.01021971,0,0,0,0,0,8.833311,39.9336,0.4833038,0,50.97195,-9.913709,6138.611,39328.2
1080,54.0,-10.08011,-0.4936585,0.01043866,0,0,0,0,0,8.999711,40.68586,0.4936585,0,52.23224,-10.08011,6191.604,39428.1
1100,55.0,-10.24717,-0.5040207,0.01065778,0,0,0,0,0,9.166777,41.44113,0.5040208,0,53.51375,-10.24717,6241.075,39522
1120,56.0,-10.41371,-0.5147337,0.01088431,0,0,0,0,0,9.333312,42.19399,0.5147337,0,54.80775,-10.41371,6291.785,39641.9
1140,57.0,-10.58024,-0.5242824,0.01108622,0,0,0,0,0,9.499844,42.94685,0.5242825,0,56.11869,-10.58024,6325.039,39669.5
1160,58.0,-10.74704,-0.5350681,0.01131429,0,0,0,0,0,9.666643,43.70092,0.535068,0,57.4492,-10.74704,6369.841,39786.9
1180,59.0,-10.91371,-0.5463634,0.01155314,0,0,0,0,0,9.833309,44.45438,0.5463634,0,58.79655,-10.91371,6417.261,39938.3
1200,60.0,-11.08037,-0.5591164,0.0118228,0,0,0,0,0,9.999975,45.20785,0.5591164,0,60.16232,-11.08037,6477.969,40189.3
1220,61.0,-11.24717,-0.5722846,0.01210125,0,0,0,0,0,10.16678,45.96191,0.5722846,0,61.54811,-11.24717,6539.285,40460.9
1240,62.0,-11.41371,-0.5861932,0.01239536,0,0,0,0,0,10.33331,46.71478,0.5861932,0,62.95111,-11.41371,6604.894,40776.4
1260,63.0,-11.58037,-0.6002617,0.01269284,0,0,0,0,0,10.49997,47.46824,0.6002616,0,64.37522,-11.58037,6667.773,41092.2
1280,64.0,-11.74717,-0.6146295,0.01299666,0,0,0,0,0,10.66677,48.22231,0.6146295,0,65.82107,-11.74717,6729.37,41417.9
1300,65.0,-11.91357,-0.6289255,0.01329895,0,0,0,0,0,10.83317,48.97456,0.6289255,0,67.28459,-11.91357,6785.849,41730.2
1320,66.0,-12.08024,-0.6441732,0.01362137,0,0,0,0,0,10.99984,49.72803,0.6441732,0,68.77225,-12.08024,6847.733,42094.3
1340,67.0,-12.24677,-0.6592294,0.01393975,0,0,0,0,0,11.16637,50.48089,0.6592295,0,70.28115,-12.24677,6902.838,42435.8
1360,68.0,-12.41384,-0.6760411,0.01429524,0,0,0,0,0,11.33344,51.23616,0.6760411,0,71.81811,-12.41384,6970.907,42876.4
1380,69.0,-12.58037,-0.6926962,0.01464742,0,0,0,0,0,11.49997,51.98903,0.6926962,0,73.37405,-12.58037,7032.368,43296.6
1400,70.0,-12.7469,-0.7105431,0.0150248,0,0,0,0,0,11.6665,52.74188,0.710543,0,74.95458,-12.7469,7100.437,43778.1
1420,71.0,-12.91384,-0.7296627,0.01542909,0,0,0,0,0,11.83344,53.49656,0.7296627,0,76.56438,-12.91384,7175.06,44321.9
1440,72.0,-13.08037,-0.7488414,0.01583464,0,0,0,0,0,11.99997,54.24941,0.7488414,0,78.19656,-13.08037,7244.439,44855.6
1460,73.0,-13.2469,-0.7686766,0.01625406,0,0,0,0,0,12.1665,55.00228,0.7686766,0,79.85583,-13.2469,7313.958,45413.5
1480,74.0,-13.41383,-0.7896789,0.01669817,0,0,0,0,0,12.33344,55.75695,0.7896789,0,81.54718,-13.41383,7387.779,46022.9
1500,75.0,-13.58023,-0.8115079,0.01715975,0,0,0,0,0,12.49984,56.5092,0.8115079,0,83.26209,-13.58023,7462.912,46665.5
1520,76.0,-13.74717,-0.8342063,0.01763972,0,0,0,0,0,12.66677,57.26388,0.8342063,0,85.01256,-13.74717,7538.533,47338.5
1540,77.0,-13.9137,-0.8578952,0.01814063,0,0,0,0,0,12.8333,58.01674,0.8578951,0,86.78991,-13.9137,7616.031,48051.1
1560,78.0,-14.08037,-0.8839223,0.01869099,0,0,0,0,0,12.99997,58.7702,0.8839223,0,88.60088,-14.08037,7706.259,48874.1
1580,79.0,-14.24703,-0.9110502,0.01926463,0,0,0,0,0,13.16663,59.52366,0.9110502,0,90.44527,-14.24703,7797.615,49736.5
1600,80.0,-14.41383,-0.9397861,0.01987226,0,0,0,0,0,13.33343,60.27773,0.9397861,0,92.32582,-14.41383,7893.713,50663.4
1620,81.00001,-14.58036,-0.9695005,0.02050059,0,0,0,0,0,13.49997,61.03059,0.9695005,0,94.23932,-14.58036,7988.957,51620.5
1640,82.00001,-14.74703,-1.001155,0.02116993,0,0,0,0,0,13.66663,61.78406,1.001155,0,96.19174,-14.74703,8090.289,52655.9
1660,83.00001,-14.9137,-1.034301,0.02187083,0,0,0,0,0,13.8333,62.53752,1.034301,0,98.18303,-14.9137,8193.355,53743.8
1680,84.00001,-15.08036,-1.070593,0.02263825,0,0,0,0,0,13.99997,63.29099,1.070593,0,100.2148,-15.08036,8310.278,54967.3
1681,84.00401,-15.0809,-1.070786,0.02264233,0,0,0,0,0,14.0005,63.2934,1.070786,0,100.2214,-15.0809,8311.228,54975.2