File: GFBaking/em/xg3.csv
,Time sec,Extension mm,Load kgf,Compressive stress MPa,Cycle Count ,Total Cycle Count ,Repetitions Count ,Marked Data ,PIP Count ,Compressive extension mm,Compressive strain %,Compressive load kgf,Displacement (Strain 1) mm,True strain %,Corrected Position mm,True stress Pa,Elastic Modulus
0,0.0,-0.7078649,-0.008656339,0.0002239262,0,0,0,0,0,-1.04361e-16,-4.440892e-16,0.00865634,0,0.0,-0.7078649,223.9262,-5.96216e+19
22,1.1,-0.8910645,-0.02129067,0.000550757,0,0,0,0,0,0.1831995,0.7795725,0.02129067,0,0.782627,-0.8910645,546.4635,83535.7
44,2.2,-1.074797,-0.03259764,0.0008432511,0,0,0,0,0,0.3669324,1.561415,0.03259764,0,1.573733,-1.074797,830.0844,63856.8
66,3.3,-1.257864,-0.04292883,0.001110503,0,0,0,0,0,0.5499986,2.34042,0.04292883,0,2.368243,-1.257864,1084.512,56104.1
88,4.4,-1.44133,-0.05283384,0.00136673,0,0,0,0,0,0.7334649,3.121127,0.05283384,0,3.170872,-1.44133,1324.073,51777.4
110,5.5,-1.624796,-0.06167595,0.001595462,0,0,0,0,0,0.9169312,3.901835,0.06167594,0,3.979996,-1.624796,1533.21,48348.9
132,6.6,-1.807996,-0.06985662,0.001807084,0,0,0,0,0,1.100131,4.681407,0.06985662,0,4.794529,-1.807996,1722.487,45642.6
154,7.7,-1.991329,-0.0775123,0.002005124,0,0,0,0,0,1.283464,5.461547,0.07751229,0,5.616353,-1.991329,1895.613,43410.4
176,8.8,-2.174528,-0.08447645,0.002185276,0,0,0,0,0,1.466663,6.24112,0.08447645,0,6.444381,-2.174528,2048.89,41401.2
198,9.900001,-2.357861,-0.08995917,0.002327106,0,0,0,0,0,1.649996,7.02126,0.08995917,0,7.279932,-2.357861,2163.714,39189.5
220,11.0,-2.541461,-0.09507861,0.002459538,0,0,0,0,0,1.833596,7.802535,0.0950786,0,8.123754,-2.541461,2267.631,37272.3
242,12.1,-2.72466,-0.1000654,0.002588538,0,0,0,0,0,2.016795,8.582107,0.1000654,0,8.972896,-2.72466,2366.387,35664
264,13.2,-2.907993,-0.104086,0.002692546,0,0,0,0,0,2.200128,9.362247,0.104086,0,9.829936,-2.907993,2440.463,34005.7
286,14.3,-3.091326,-0.1088685,0.002816261,0,0,0,0,0,2.383461,10.14239,0.1088685,0,10.69438,-3.091326,2530.625,32832.3
308,15.4,-3.274525,-0.1127572,0.002916857,0,0,0,0,0,2.56666,10.92196,0.1127572,0,11.56573,-3.274525,2598.279,31577.9
330,16.5,-3.458125,-0.1165345,0.003014569,0,0,0,0,0,2.75026,11.70323,0.1165345,0,12.44667,-3.458125,2661.767,30457.1
352,17.6,-3.641458,-0.1203729,0.003113861,0,0,0,0,0,2.933593,12.48337,0.1203729,0,13.33414,-3.641458,2725.147,29494.2
374,18.7,-3.824391,-0.1247262,0.003226475,0,0,0,0,0,3.116526,13.26181,0.1247262,0,14.22759,-3.824391,2798.586,28767
396,19.8,-4.007857,-0.1283444,0.003320072,0,0,0,0,0,3.299992,14.04252,0.1283444,0,15.13174,-4.007857,2853.85,27955.8
418,20.9,-4.191056,-0.1326384,0.003431152,0,0,0,0,0,3.483191,14.82209,0.1326384,0,16.04281,-4.191056,2922.583,27371.5
440,22.0,-4.37479,-0.1366861,0.003535859,0,0,0,0,0,3.666924,15.60393,0.1366861,0,16.96494,-4.37479,2984.126,26793.5
462,23.1,-4.558255,-0.1404181,0.0036324,0,0,0,0,0,3.85039,16.38464,0.1404181,0,17.8943,-4.558255,3037.245,26213.5
484,24.2,-4.741055,-0.1456132,0.003766791,0,0,0,0,0,4.03319,17.16251,0.1456132,0,18.82894,-4.741055,3120.315,25951.3
506,25.3,-4.924521,-0.1498854,0.003877307,0,0,0,0,0,4.216656,17.94322,0.1498854,0,19.77587,-4.924521,3181.593,25550.4
528,26.4,-5.107854,-0.1548188,0.004004924,0,0,0,0,0,4.399989,18.72336,0.1548188,0,20.73115,-5.107854,3255.068,25291.8
550,27.5,-5.29132,-0.1602106,0.004144403,0,0,0,0,0,4.583456,19.50407,0.1602106,0,21.69635,-5.29132,3336.076,25125
572,28.6,-5.47492,-0.1660079,0.004294368,0,0,0,0,0,4.767055,20.28534,0.1660078,0,22.67167,-5.47492,3423.241,25031.4
594,29.7,-5.657853,-0.1721094,0.004452207,0,0,0,0,0,4.949988,21.06378,0.1721094,0,23.653,-5.657853,3514.404,24992.4
616,30.8,-5.841186,-0.1783575,0.004613834,0,0,0,0,0,5.133321,21.84392,0.1783575,0,24.64623,-5.841186,3605.992,24974.7
638,31.9,-6.024652,-0.1844437,0.004771276,0,0,0,0,0,5.316787,22.62463,0.1844437,0,25.65016,-6.024652,3691.793,24935.7
660,33.0,-6.207852,-0.1912803,0.004948128,0,0,0,0,0,5.499987,23.4042,0.1912803,0,26.66279,-6.207852,3790.058,24998.6
682,34.1,-6.391318,-0.1983095,0.005129963,0,0,0,0,0,5.683452,24.1849,0.1983095,0,27.68728,-6.391318,3889.287,25080.6
704,35.2,-6.574651,-0.205389,0.005313099,0,0,0,0,0,5.866786,24.96505,0.205389,0,28.72161,-6.574651,3986.681,25164.3
726,36.3,-6.757717,-0.2117533,0.005477734,0,0,0,0,0,6.049851,25.74405,0.2117534,0,29.76523,-6.757717,4067.544,25159
748,37.4,-6.94145,-0.2181227,0.0056425,0,0,0,0,0,6.233584,26.52589,0.2181227,0,30.82371,-6.94145,4145.777,25151.9
770,38.5,-7.124649,-0.2243451,0.005803463,0,0,0,0,0,6.416785,27.30547,0.2243451,0,31.8904,-7.124649,4218.8,25130.8
792,39.6,-7.307849,-0.2307643,0.005969519,0,0,0,0,0,6.599984,28.08504,0.2307643,0,32.96858,-7.307849,4292.977,25132.3
814,40.7,-7.491448,-0.2374998,0.006143756,0,0,0,0,0,6.783583,28.86631,0.2374998,0,34.06091,-7.491448,4370.28,25165.8
836,41.8,-7.674648,-0.2445257,0.006325506,0,0,0,0,0,6.966783,29.64589,0.2445257,0,35.16289,-7.674648,4450.253,25229
858,42.9,-7.857981,-0.2526206,0.006534907,0,0,0,0,0,7.150116,30.42603,0.2526206,0,36.27796,-7.857981,4546.594,25395.9
880,44.0,-8.041181,-0.2613836,0.006761592,0,0,0,0,0,7.333316,31.2056,0.2613836,0,37.40478,-8.041181,4651.597,25620.4
902,45.1,-8.224647,-0.2701599,0.006988623,0,0,0,0,0,7.516782,31.98631,0.2701599,0,38.54611,-8.224647,4753.221,25834.3
924,46.2,-8.408247,-0.2792559,0.007223922,0,0,0,0,0,7.700382,32.76758,0.2792559,0,39.70146,-8.408247,4856.817,26067.4
946,47.3,-8.591313,-0.2882952,0.007457756,0,0,0,0,0,7.883448,33.54659,0.2882952,0,40.86691,-8.591313,4955.933,26286.2
968,48.4,-8.774779,-0.2977127,0.00770137,0,0,0,0,0,8.066914,34.32729,0.2977127,0,42.04868,-8.774779,5057.698,26527.6
990,49.5,-8.957845,-0.3080546,0.0079689,0,0,0,0,0,8.24998,35.1063,0.3080546,0,43.24196,-8.957845,5171.314,26840
1012,50.6,-9.141178,-0.3183847,0.008236123,0,0,0,0,0,8.433312,35.88644,0.3183847,0,44.45142,-9.141178,5280.472,27137
1034,51.7,-9.324777,-0.3291922,0.008515697,0,0,0,0,0,8.616911,36.66771,0.3291922,0,45.67748,-9.324777,5393.186,27460.3
1056,52.8,-9.508111,-0.339413,0.008780093,0,0,0,0,0,8.800246,37.44785,0.339413,0,46.91697,-9.508111,5492.137,27723
1078,53.9,-9.691177,-0.3494068,0.009038617,0,0,0,0,0,8.983313,38.22686,0.3494067,0,48.17015,-9.691177,5583.438,27957.7
1100,55.0,-9.874643,-0.3590255,0.009287439,0,0,0,0,0,9.166778,39.00756,0.3590255,0,49.44204,-9.874643,5664.635,28152.4
1122,56.1,-10.05784,-0.3707524,0.009590796,0,0,0,0,0,9.349977,39.78714,0.3707524,0,50.72841,-10.05784,5774.893,28502.4
1144,57.2,-10.24144,-0.381203,0.009861138,0,0,0,0,0,9.533576,40.56841,0.381203,0,52.03442,-10.24144,5860.631,28741.4
1166,58.3,-10.42491,-0.3929116,0.01016402,0,0,0,0,0,9.717044,41.34912,0.3929116,0,53.35676,-10.42491,5961.288,29064.8
1188,59.4,-10.60784,-0.404137,0.01045441,0,0,0,0,0,9.899976,42.12756,0.404137,0,54.69288,-10.60784,6050.22,29342.8
1210,60.5,-10.79131,-0.4157201,0.01075404,0,0,0,0,0,10.08344,42.90826,0.4157201,0,56.05108,-10.79131,6139.669,29634.6
1232,61.6,-10.97451,-0.4280349,0.01107261,0,0,0,0,0,10.26664,43.68784,0.4280349,0,57.42597,-10.97451,6235.224,29968
1254,62.7,-11.15797,-0.4405561,0.01139651,0,0,0,0,0,10.45011,44.46854,0.4405561,0,58.82206,-11.15797,6328.649,30303.1
1276,63.8,-11.34171,-0.4527504,0.01171196,0,0,0,0,0,10.63384,45.25039,0.4527504,0,60.23998,-11.34171,6412.252,30603.8
1298,64.9,-11.52464,-0.4646322,0.01201932,0,0,0,0,0,10.81677,46.02882,0.4646322,0,61.672,-11.52464,6486.97,30875.9
1320,66.0,-11.70784,-0.477239,0.01234544,0,0,0,0,0,10.99997,46.8084,0.477239,0,63.12696,-11.70784,6566.738,31185.4
1342,67.10001,-11.89144,-0.4902381,0.01268171,0,0,0,0,0,11.18357,47.58967,0.4902381,0,64.60665,-11.89144,6646.524,31508.9
1364,68.20001,-12.07464,-0.5028997,0.01300924,0,0,0,0,0,11.36677,48.36924,0.5028997,0,66.10527,-12.07464,6716.771,31801.8
1386,69.3,-12.2581,-0.5162996,0.01335588,0,0,0,0,0,11.55024,49.14995,0.5162996,0,67.6289,-12.2581,6791.472,32130.5
1408,70.4,-12.44144,-0.5296785,0.01370197,0,0,0,0,0,11.73357,49.93009,0.5296785,0,69.175,-12.44144,6860.564,32448.1
1430,71.5,-12.6245,-0.5436145,0.01406247,0,0,0,0,0,11.91664,50.7091,0.5436145,0,70.74306,-12.6245,6931.52,32790.2
1452,72.60001,-12.8081,-0.5588064,0.01445546,0,0,0,0,0,12.10024,51.49037,0.5588064,0,72.34079,-12.8081,7012.292,33195.2
1474,73.70001,-12.9913,-0.5751959,0.01487944,0,0,0,0,0,12.28344,52.26994,0.5751959,0,73.96089,-12.9913,7101.963,33659.1
1496,74.8,-13.17463,-0.591752,0.01530772,0,0,0,0,0,12.46677,53.05008,0.5917521,0,75.60888,-13.17463,7186.961,34118.8
1518,75.9,-13.3581,-0.6098993,0.01577716,0,0,0,0,0,12.65024,53.83079,0.6098993,0,77.28571,-13.3581,7284.19,34655.1
1540,77.0,-13.5413,-0.6295484,0.01628545,0,0,0,0,0,12.83344,54.61036,0.6295484,0,78.98863,-13.5413,7391.908,35260.9
1562,78.10001,-13.72463,-0.6490709,0.01679047,0,0,0,0,0,13.01677,55.3905,0.6490709,0,80.72234,-13.72463,7490.145,35842.3
1584,79.20001,-13.90797,-0.6697221,0.01732468,0,0,0,0,0,13.2001,56.17064,0.6697221,0,82.48664,-13.90797,7593.297,36469.1
1606,80.3,-14.0913,-0.6893626,0.01783275,0,0,0,0,0,13.38343,56.95078,0.6893626,0,84.28262,-14.0913,7676.86,37024.4
1628,81.4,-14.27463,-0.7107224,0.0183853,0,0,0,0,0,13.56677,57.73092,0.7107223,0,86.11144,-14.27463,7771.296,37655.7
1650,82.50001,-14.4581,-0.7345376,0.01900136,0,0,0,0,0,13.75023,58.51163,0.7345376,0,87.97571,-14.4581,7883.355,38398.2
1672,83.60001,-14.64143,-0.7581869,0.01961313,0,0,0,0,0,13.93357,59.29177,0.7581869,0,89.87399,-14.64143,7984.159,39113
1694,84.70001,-14.8245,-0.7833183,0.02026324,0,0,0,0,0,14.11663,60.07078,0.7833183,0,91.80617,-14.8245,8090.955,39885.5
1716,85.8,-15.00783,-0.8096283,0.02094384,0,0,0,0,0,14.29997,60.85092,0.8096282,0,93.77932,-15.00783,8199.322,40696.6
1738,86.9,-15.19143,-0.8401358,0.02173303,0,0,0,0,0,14.48356,61.63219,0.8401358,0,95.79512,-15.19143,8338.487,41694.8
1760,88.00001,-15.3749,-0.8705777,0.02252051,0,0,0,0,0,14.66703,62.4129,0.8705776,0,97.85093,-15.3749,8464.806,42665.1
1782,89.10001,-15.5577,-0.9024654,0.0233454,0,0,0,0,0,14.84983,63.19077,0.9024653,0,99.94214,-15.5577,8593.262,43683.4
1804,90.16801,-15.73596,-0.9366332,0.02422927,0,0,0,0,0,15.0281,63.94935,0.9366332,0,102.0245,-15.73596,8734.808,44799.5