File: GFBaking/em/xg6.csv
,Time sec,Extension mm,Load kgf,Compressive stress MPa,Cycle Count ,Total Cycle Count ,Repetitions Count ,Marked Data ,PIP Count ,Compressive extension mm,Compressive strain %,Compressive load kgf,Displacement (Strain 1) mm,True strain %,Corrected Position mm,True stress Pa,Elastic Modulus
0,0.0,-0.000133333,-0.01863685,0.0005043532,0,0,0,0,0,0.0,0.0,0.01863685,0,0.0,-0.000133333,504.3532,inf
22,1.1,-0.1834662,-0.03773367,0.001021154,0,0,0,0,0,0.1833329,0.6765051,0.03773367,0,0.6788038,-0.1834662,1014.246,147944
44,2.2,-0.3667991,-0.05350901,0.001448069,0,0,0,0,0,0.3666658,1.35301,0.053509,0,1.362247,-0.3667991,1428.476,104897
66,3.3,-0.5503987,-0.06947653,0.001880184,0,0,0,0,0,0.5502654,2.030499,0.06947654,0,2.051398,-0.5503987,1842.007,90755.6
88,4.4,-0.7335982,-0.08532354,0.002309038,0,0,0,0,0,0.7334649,2.706512,0.08532353,0,2.743813,-0.7335982,2246.544,83617.4
110,5.5,-0.9169311,-0.1016089,0.002749756,0,0,0,0,0,0.9167977,3.383018,0.1016089,0,3.441566,-0.9169311,2656.731,79664.6
132,6.6,-1.100264,-0.1178833,0.003190174,0,0,0,0,0,1.100131,4.059523,0.1178833,0,4.144221,-1.100264,3060.669,77022.1
154,7.7,-1.283197,-0.1344946,0.003639713,0,0,0,0,0,1.283064,4.734552,0.1344946,0,4.8503,-1.283197,3467.389,75346.6
176,8.8,-1.46693,-0.1514063,0.00409738,0,0,0,0,0,1.466797,5.412533,0.1514063,0,5.564521,-1.46693,3875.608,74196.1
198,9.900001,-1.650263,-0.168591,0.004562433,0,0,0,0,0,1.650129,6.089038,0.1685909,0,6.282306,-1.650263,4284.625,73438.5
220,11.0,-1.833462,-0.1848128,0.005001432,0,0,0,0,0,1.833329,6.765051,0.1848128,0,7.004754,-1.833462,4663.083,72460.1
242,12.1,-2.016929,-0.2004887,0.005425655,0,0,0,0,0,2.016795,7.442049,0.2004887,0,7.733523,-2.016929,5021.875,71455.5
264,13.2,-2.199995,-0.2159196,0.005843247,0,0,0,0,0,2.199861,8.117569,0.2159196,0,8.466035,-2.199995,5368.917,70551.2
286,14.3,-2.383328,-0.2307201,0.006243781,0,0,0,0,0,2.383194,8.794075,0.2307201,0,9.205033,-2.383328,5694.698,69587.8
308,15.4,-2.567061,-0.2447682,0.006623953,0,0,0,0,0,2.566927,9.472056,0.2447682,0,9.951162,-2.567061,5996.528,68540.7
330,16.5,-2.750127,-0.2576412,0.006972325,0,0,0,0,0,2.749993,10.14758,0.2576412,0,10.70016,-2.750127,6264.803,67342.8
352,17.6,-2.93346,-0.2691788,0.007284557,0,0,0,0,0,2.933326,10.82408,0.2691788,0,11.45592,-2.93346,6496.07,65961.1
374,18.7,-3.116792,-0.2803398,0.007586597,0,0,0,0,0,3.116659,11.50059,0.2803398,0,12.21743,-3.116792,6714.094,64655.1
396,19.8,-3.299992,-0.2902952,0.007856012,0,0,0,0,0,3.299858,12.1766,0.2902952,0,12.98422,-3.299992,6899.417,63234.2
418,20.9,-3.483725,-0.2997293,0.008111319,0,0,0,0,0,3.483591,12.85458,0.2997293,0,13.7592,-3.483725,7068.643,61845.7
440,22.0,-3.666924,-0.3073129,0.008316547,0,0,0,0,0,3.666791,13.53059,0.3073129,0,14.53795,-3.666924,7191.269,60242.4
462,23.1,-3.850124,-0.3138633,0.008493814,0,0,0,0,0,3.84999,14.20661,0.3138633,0,15.32282,-3.850124,7287.131,58598.7
484,24.2,-4.033457,-0.3180807,0.008607947,0,0,0,0,0,4.033323,14.88311,0.3180807,0,16.11447,-4.033457,7326.817,56686.8
506,25.3,-4.216657,-0.3221978,0.008719364,0,0,0,0,0,4.216523,15.55913,0.3221978,0,16.91186,-4.216657,7362.707,54925.7
528,26.4,-4.400389,-0.325545,0.008809946,0,0,0,0,0,4.400256,16.23711,0.325545,0,17.71801,-4.400389,7379.466,53179
550,27.5,-4.583456,-0.327558,0.008864423,0,0,0,0,0,4.583323,16.91263,0.327558,0,18.52775,-4.583456,7365.216,51370.6
572,28.6,-4.766922,-0.3290781,0.00890556,0,0,0,0,0,4.766789,17.58963,0.3290781,0,19.34589,-4.766922,7339.105,49622.7
594,29.7,-4.950122,-0.3300168,0.008930963,0,0,0,0,0,4.949988,18.26564,0.3300168,0,20.16957,-4.950122,7299.665,47922.5
616,30.8,-5.133187,-0.3296303,0.008920502,0,0,0,0,0,5.133054,18.94116,0.3296303,0,20.99948,-5.133187,7230.856,46159.2
638,31.9,-5.316921,-0.3305378,0.008945064,0,0,0,0,0,5.316787,19.61914,0.3305379,0,21.83941,-5.316921,7190.119,44686.8
660,33.0,-5.500253,-0.3312424,0.008964132,0,0,0,0,0,5.50012,20.29564,0.3312424,0,22.6846,-5.500253,7144.803,43289.3
682,34.1,-5.68332,-0.3325451,0.008999383,0,0,0,0,0,5.683186,20.97117,0.3325451,0,23.53574,-5.68332,7112.108,42059.7
704,35.2,-5.867052,-0.334538,0.009053317,0,0,0,0,0,5.866919,21.64915,0.334538,0,24.39733,-5.867052,7093.351,40986.7
726,36.3,-6.050119,-0.3365038,0.009106516,0,0,0,0,0,6.049985,22.32467,0.3365038,0,25.26325,-6.050119,7073.516,39980
748,37.4,-6.233451,-0.338569,0.009162406,0,0,0,0,0,6.233318,23.00117,0.338569,0,26.138,-6.233451,7054.945,39042.3
770,38.5,-6.416918,-0.3396487,0.009191623,0,0,0,0,0,6.416785,23.67817,0.3396487,0,27.02112,-6.416918,7015.214,38046.9
792,39.6,-6.60025,-0.3407288,0.009220853,0,0,0,0,0,6.600117,24.35468,0.3407288,0,27.91145,-6.60025,6975.145,37107.7
814,40.7,-6.783584,-0.3412495,0.009234945,0,0,0,0,0,6.78345,25.03118,0.3412495,0,28.80979,-6.783584,6923.329,36160
836,41.8,-6.966916,-0.3425234,0.009269418,0,0,0,0,0,6.966783,25.70769,0.3425234,0,29.71627,-6.966916,6886.465,35339.9
858,42.9,-7.149849,-0.3425534,0.00927023,0,0,0,0,0,7.149716,26.38272,0.3425534,0,30.62903,-7.149849,6824.492,34438.7
880,44.0,-7.333582,-0.3424996,0.009268774,0,0,0,0,0,7.333449,27.0607,0.3424996,0,31.55426,-7.333582,6760.579,33570.6
902,45.1,-7.516915,-0.3434569,0.009294682,0,0,0,0,0,7.516782,27.7372,0.3434569,0,32.48607,-7.516915,6716.597,32843.4
924,46.2,-7.700248,-0.3437944,0.009303816,0,0,0,0,0,7.700115,28.41371,0.3437944,0,33.42666,-7.700248,6660.257,32092.9
946,47.3,-7.883715,-0.3433447,0.009291645,0,0,0,0,0,7.883581,29.09071,0.3433447,0,34.37687,-7.883715,6588.64,31305
968,48.4,-8.06638,-0.3426719,0.009273437,0,0,0,0,0,8.066247,29.76475,0.3426719,0,35.33199,-8.06638,6513.221,30536.1
990,49.5,-8.250247,-0.3406596,0.009218981,0,0,0,0,0,8.250113,30.44322,0.3406596,0,36.30268,-8.250247,6412.425,29680.3
1012,50.6,-8.433713,-0.3416934,0.009246957,0,0,0,0,0,8.433579,31.12022,0.3416934,0,37.28075,-8.433713,6369.284,29122.7
1034,51.7,-8.616912,-0.3436309,0.009299389,0,0,0,0,0,8.616779,31.79623,0.3436309,0,38.26704,-8.616912,6342.534,28665.2
1056,52.8,-8.800245,-0.3457513,0.009356773,0,0,0,0,0,8.800112,32.47274,0.3457513,0,39.26388,-8.800245,6318.373,28241.2
1078,53.9,-8.983311,-0.3477916,0.009411987,0,0,0,0,0,8.983178,33.14826,0.3477916,0,40.26928,-8.983311,6292.077,27828.9
1100,55.0,-9.166778,-0.3497796,0.009465788,0,0,0,0,0,9.166645,33.82526,0.3497796,0,41.28713,-9.166778,6263.96,27427.8
1122,56.1,-9.350377,-0.3519561,0.009524689,0,0,0,0,0,9.350243,34.50274,0.3519561,0,42.31619,-9.350377,6238.41,27056.6
1144,57.2,-9.533443,-0.3542199,0.009585951,0,0,0,0,0,9.533309,35.17826,0.3542199,0,43.35292,-9.533443,6213.78,26707.7
1166,58.3,-9.716909,-0.3577366,0.009681121,0,0,0,0,0,9.716776,35.85526,0.3577366,0,44.40281,-9.716909,6209.93,26463.6
1188,59.4,-9.900109,-0.3616882,0.009788059,0,0,0,0,0,9.899976,36.53128,0.3616882,0,45.46229,-9.900109,6212.356,26260.8
1210,60.5,-10.08331,-0.363928,0.009848674,0,0,0,0,0,10.08317,37.20729,0.363928,0,46.53311,-10.08331,6184.25,25943.3
1232,61.6,-10.26691,-0.366588,0.009920658,0,0,0,0,0,10.26678,37.88478,0.366588,0,47.61791,-10.26691,6162.238,25665.6
1254,62.7,-10.45011,-0.3687036,0.009977912,0,0,0,0,0,10.44998,38.56079,0.3687036,0,48.7122,-10.45011,6130.35,25361.2
1276,63.8,-10.63357,-0.3713261,0.01004888,0,0,0,0,0,10.63344,39.23779,0.3713261,0,49.82021,-10.63357,6105.922,25100.9
1298,64.9,-10.81691,-0.3741439,0.01012514,0,0,0,0,0,10.81677,39.91429,0.3741439,0,50.93982,-10.81691,6083.76,24862.7
1320,66.0,-10.99997,-0.377256,0.01020936,0,0,0,0,0,10.99984,40.58981,0.377256,0,52.07045,-10.99997,6065.398,24652.3
1342,67.10001,-11.18344,-0.3816462,0.01032816,0,0,0,0,0,11.18331,41.26682,0.3816462,0,53.21653,-11.18344,6066.06,24530
1364,68.20001,-11.36691,-0.3867778,0.01046704,0,0,0,0,0,11.36677,41.94381,0.3867778,0,54.37588,-11.36691,6076.763,24458.6
1386,69.3,-11.55011,-0.3919406,0.01060675,0,0,0,0,0,11.54997,42.61982,0.3919406,0,55.54713,-11.55011,6086.174,24392
1408,70.4,-11.73357,-0.3997023,0.0108168,0,0,0,0,0,11.73344,43.29682,0.3997023,0,56.73399,-11.73357,6133.471,24486
1430,71.5,-11.91677,-0.4071909,0.01101946,0,0,0,0,0,11.91664,43.97283,0.4071909,0,57.93335,-11.91677,6173.891,24561.3
1452,72.60001,-12.1001,-0.4145807,0.01121944,0,0,0,0,0,12.09997,44.64934,0.4145807,0,59.14815,-12.1001,6210.037,24628.2
1474,73.70001,-12.2837,-0.4214179,0.01140447,0,0,0,0,0,12.28357,45.32683,0.4214179,0,60.3797,-12.2837,6235.187,24660.1
1496,74.8,-12.46677,-0.4296807,0.01162808,0,0,0,0,0,12.46664,46.00235,0.4296807,0,61.62296,-12.46677,6278.892,24774.4
1518,75.9,-12.65024,-0.4378567,0.01184934,0,0,0,0,0,12.6501,46.67934,0.4378567,0,62.88464,-12.65024,6318.147,24879.7
1540,77.0,-12.8337,-0.4463108,0.01207813,0,0,0,0,0,12.83357,47.35634,0.4463108,0,64.16244,-12.8337,6358.368,24997.5
1562,78.10001,-13.01663,-0.4541121,0.01228925,0,0,0,0,0,13.0165,48.03137,0.4541121,0,65.45299,-13.01663,6386.555,25077
1584,79.20001,-13.2001,-0.4639183,0.01255462,0,0,0,0,0,13.19997,48.70837,0.4639183,0,66.76426,-13.2001,6439.471,25262.5
1606,80.3,-13.38357,-0.4736164,0.01281708,0,0,0,0,0,13.38343,49.38536,0.4736164,0,68.09294,-13.38357,6487.317,25437
1628,81.4,-13.56703,-0.4847302,0.01311784,0,0,0,0,0,13.5669,50.06236,0.4847302,0,69.43952,-13.56703,6550.74,25681.9
1650,82.50001,-13.75023,-0.4962036,0.01342834,0,0,0,0,0,13.7501,50.73837,0.4962036,0,70.80247,-13.75023,6615.017,25939.5
1672,83.60001,-13.9333,-0.5092087,0.01378028,0,0,0,0,0,13.93316,51.41389,0.5092087,0,72.18326,-13.9333,6695.302,26269.6
1694,84.70001,-14.1169,-0.5224493,0.0141386,0,0,0,0,0,14.11677,52.09138,0.5224493,0,73.58748,-14.1169,6773.607,26602.1
1716,85.8,-14.30037,-0.5362982,0.01451338,0,0,0,0,0,14.30023,52.76838,0.5362982,0,75.01067,-14.30037,6854.904,26956.9
1738,86.9,-14.48356,-0.5517893,0.0149326,0,0,0,0,0,14.48343,53.4444,0.5517893,0,76.45228,-14.48356,6951.964,27384.8
1760,88.00001,-14.6669,-0.5673462,0.01535361,0,0,0,0,0,14.66676,54.1209,0.5673462,0,77.91605,-14.6669,7044.096,27804.9
1782,89.10001,-14.8501,-0.5828189,0.01577233,0,0,0,0,0,14.84996,54.79691,0.5828189,0,79.40048,-14.8501,7129.58,28210.8
1804,90.20001,-15.03343,-0.5999457,0.01623582,0,0,0,0,0,15.0333,55.47342,0.5999457,0,80.90838,-15.03343,7229.255,28685.7
1806,90.258,-15.04343,-0.6008191,0.01625946,0,0,0,0,0,15.0433,55.51032,0.6008191,0,80.99129,-15.04343,7233.78,28708.3