File: GFBaking/data/XG/XG_Compression_Data/XG_Compression_Specimen2.csv
Time sec,Extension mm,Load kgf,Compressive stress MPa,Cycle Count ,Total Cycle Count ,Repetitions Count ,Marked Data ,PIP Count ,Compressive extension mm,Compressive strain %,Compressive load kgf,Displacement (Strain 1) mm,True strain %,Corrected Position mm,True stress Pa
0,-1.080397,-0.00641651,0.0001356804,0,0,0,0,0,-1.964651E-016,-8.881784E-016,0.00641651,0,0,-1.080397,135.6804
0.9000001,-1.230397,-0.01901175,0.0004020132,0,0,0,0,0,0.1499996,0.6781177,0.01901175,0,0.6804273,-1.230397,399.287
1.8,-1.380397,-0.02923427,0.0006181736,0,0,0,0,0,0.2999993,1.356235,0.02923427,0,1.365516,-1.380397,609.7898
2.7,-1.530396,-0.03919632,0.0008288262,0,0,0,0,0,0.4499989,2.034353,0.03919632,0,2.055331,-1.530396,811.965
3.6,-1.680396,-0.04972861,0.001051537,0,0,0,0,0,0.5999985,2.712471,0.04972861,0,2.749937,-1.680396,1023.015
4.5,-1.830262,-0.0606188,0.001281816,0,0,0,0,0,0.7498649,3.389986,0.0606188,0,3.448778,-1.830262,1238.362
5.4,-1.980528,-0.07136692,0.00150909,0,0,0,0,0,0.900131,4.069309,0.07136692,0,4.154422,-1.980528,1447.681
6.3,-2.130528,-0.0827364,0.001749504,0,0,0,0,0,1.050131,4.747427,0.0827364,0,4.863816,-2.130528,1666.447
7.2,-2.280528,-0.09447149,0.001997648,0,0,0,0,0,1.20013,5.425544,0.09447149,0,5.578277,-2.280528,1889.265
8.1,-2.430394,-0.105905,0.002239415,0,0,0,0,0,1.349997,6.103059,0.105905,0,6.297238,-2.430394,2102.742
9,-2.58026,-0.1166186,0.00246596,0,0,0,0,0,1.499863,6.780574,0.1166186,0,7.021405,-2.58026,2298.754
9.900001,-2.730393,-0.1278303,0.002703038,0,0,0,0,0,1.649996,7.459294,0.1278303,0,7.752158,-2.730393,2501.411
10.8,-2.88026,-0.138905,0.002937218,0,0,0,0,0,1.799862,8.136809,0.138905,0,8.486977,-2.88026,2698.222
11.7,-3.030259,-0.1505119,0.003182651,0,0,0,0,0,1.949862,8.814928,0.1505119,0,9.227899,-3.030259,2902.102
12.6,-3.180259,-0.1615483,0.003416021,0,0,0,0,0,2.099862,9.493045,0.1615483,0,9.974349,-3.180259,3091.737
13.5,-3.330392,-0.1720811,0.003638744,0,0,0,0,0,2.249995,10.17177,0.1720811,0,10.72708,-3.330392,3268.619
14.4,-3.480392,-0.1829562,0.003868703,0,0,0,0,0,2.399994,10.84988,0.1829562,0,11.48485,-3.480392,3448.954
15.3,-3.630258,-0.1937069,0.004096033,0,0,0,0,0,2.54986,11.5274,0.1937069,0,12.24773,-3.630258,3623.867
16.2,-3.780391,-0.2047562,0.004329674,0,0,0,0,0,2.699993,12.20612,0.2047562,0,13.01784,-3.780391,3801.189
17.1,-3.93039,-0.215122,0.004548865,0,0,0,0,0,2.849993,12.88424,0.215122,0,13.79323,-3.93039,3962.778
18,-4.080123,-0.2253105,0.004764306,0,0,0,0,0,2.999726,13.56115,0.2253105,0,14.57329,-4.080123,4118.211
18.9,-4.23039,-0.234723,0.004963339,0,0,0,0,0,3.149992,14.24047,0.234723,0,15.3623,-4.23039,4256.537
19.8,-4.380656,-0.2440335,0.005160214,0,0,0,0,0,3.300258,14.91979,0.2440335,0,16.15758,-4.380656,4390.321
20.7,-4.530523,-0.2527689,0.005344929,0,0,0,0,0,3.450125,15.59731,0.2527689,0,16.95709,-4.530523,4511.263
21.6,-4.680389,-0.2607866,0.005514467,0,0,0,0,0,3.599991,16.27482,0.2607866,0,17.76305,-4.680389,4616.997
22.5,-4.830522,-0.2681366,0.005669887,0,0,0,0,0,3.750124,16.95354,0.2681366,0,18.577,-4.830522,4708.64
23.4,-4.980254,-0.2752498,0.005820299,0,0,0,0,0,3.899857,17.63046,0.2752498,0,19.39544,-4.980254,4794.154
24.3,-5.130254,-0.2814796,0.00595203,0,0,0,0,0,4.049857,18.30857,0.2814796,0,20.22211,-5.130254,4862.298
25.2,-5.28012,-0.2871496,0.006071925,0,0,0,0,0,4.199723,18.98609,0.2871495,0,21.05493,-5.28012,4919.104
26.1,-5.43012,-0.2921286,0.006177208,0,0,0,0,0,4.349722,19.66421,0.2921286,0,21.89549,-5.43012,4962.509
27,-5.580253,-0.2968946,0.006277989,0,0,0,0,0,4.499856,20.34293,0.2968946,0,22.74394,-5.580253,5000.862
27.9,-5.730253,-0.30216,0.006389328,0,0,0,0,0,4.649855,21.02105,0.30216,0,23.59888,-5.730253,5046.225
28.8,-5.880519,-0.3076478,0.00650537,0,0,0,0,0,4.800122,21.70037,0.3076478,0,24.46273,-5.880519,5093.681
29.7,-6.030652,-0.3131454,0.006621621,0,0,0,0,0,4.950254,22.37909,0.3131454,0,25.33333,-6.030652,5139.762
30.6,-6.180385,-0.3181126,0.006726654,0,0,0,0,0,5.099988,23.056,0.3181126,0,26.20923,-6.180385,5175.756
31.5,-6.330384,-0.324041,0.006852013,0,0,0,0,0,5.249987,23.73412,0.324041,0,27.09445,-6.330384,5225.748
32.4,-6.480384,-0.3296829,0.006971315,0,0,0,0,0,5.399987,24.41224,0.3296829,0,27.98758,-6.480384,5269.461
33.3,-6.630384,-0.3351257,0.007086405,0,0,0,0,0,5.549986,25.09035,0.3351257,0,28.88875,-6.630384,5308.4
34.2,-6.780384,-0.3398693,0.007186711,0,0,0,0,0,5.699986,25.76847,0.3398693,0,29.79812,-6.780384,5334.805
35.1,-6.930517,-0.3450699,0.007296681,0,0,0,0,0,5.850119,26.44719,0.3450699,0,30.71666,-6.930517,5366.914
36,-7.080516,-0.3505182,0.007411887,0,0,0,0,0,6.000118,27.12531,0.3505182,0,31.64288,-7.080516,5401.39
36.9,-7.230382,-0.3552215,0.007511342,0,0,0,0,0,6.149985,27.80283,0.3552215,0,32.57693,-7.230382,5422.977
37.8,-7.380249,-0.360327,0.0076193,0,0,0,0,0,6.299851,28.48034,0.360327,0,33.51978,-7.380249,5449.298
38.7,-7.530381,-0.3662709,0.007744987,0,0,0,0,0,6.449984,29.15906,0.3662709,0,34.47331,-7.530381,5486.622
39.6,-7.680248,-0.3724223,0.00787506,0,0,0,0,0,6.599851,29.83658,0.3724222,0,35.4343,-7.680248,5525.412
40.5,-7.830114,-0.3785366,0.008004352,0,0,0,0,0,6.749717,30.51409,0.3785366,0,36.40462,-7.830114,5561.897
41.4,-7.980247,-0.3852687,0.008146705,0,0,0,0,0,6.899849,31.19281,0.3852687,0,37.38619,-7.980247,5605.519
42.3,-8.13038,-0.3912479,0.008273138,0,0,0,0,0,7.049983,31.87153,0.3912479,0,38.3775,-8.13038,5636.362
43.2,-8.28038,-0.397661,0.008408746,0,0,0,0,0,7.199982,32.54965,0.3976609,0,39.37784,-8.28038,5671.728
44.1,-8.430246,-0.4043574,0.008550346,0,0,0,0,0,7.349849,33.22717,0.4043574,0,40.38738,-8.430246,5709.308
45,-8.580246,-0.410677,0.008683976,0,0,0,0,0,7.499849,33.90528,0.410677,0,41.40814,-8.580246,5739.649
45.9,-8.730379,-0.4177427,0.008833383,0,0,0,0,0,7.649981,34.584,0.4177427,0,42.44034,-8.730379,5778.446
46.8,-8.880379,-0.4249982,0.008986806,0,0,0,0,0,7.799982,35.26212,0.4249982,0,43.48237,-8.880379,5817.868
47.7,-9.030378,-0.4329656,0.009155279,0,0,0,0,0,7.949981,35.94024,0.4329655,0,44.53538,-9.030378,5864.85
48.6,-9.180645,-0.4409539,0.009324198,0,0,0,0,0,8.100247,36.61956,0.4409539,0,45.60149,-9.180645,5909.717
49.5,-9.330511,-0.448108,0.009475474,0,0,0,0,0,8.250113,37.29708,0.448108,0,46.67621,-9.330511,5941.399
50.4,-9.480377,-0.45646,0.009652081,0,0,0,0,0,8.39998,37.97459,0.45646,0,47.7626,-9.480377,5986.743
51.3,-9.63051,-0.465757,0.009848671,0,0,0,0,0,8.550112,38.65331,0.465757,0,48.8629,-9.63051,6041.833
52.2,-9.780243,-0.4754188,0.01005297,0,0,0,0,0,8.699845,39.33022,0.4754188,0,49.97245,-9.780243,6099.117
53.1,-9.93011,-0.4843426,0.01024167,0,0,0,0,0,8.849712,40.00774,0.4843426,0,51.09546,-9.93011,6144.212
54,-10.08011,-0.4936585,0.01043866,0,0,0,0,0,8.999711,40.68586,0.4936585,0,52.23224,-10.08011,6191.604
54.9,-10.23024,-0.5027717,0.01063137,0,0,0,0,0,9.149845,41.36458,0.5027717,0,53.38312,-10.23024,6233.746
55.8,-10.38024,-0.5123374,0.01083364,0,0,0,0,0,9.299844,42.04269,0.5123374,0,54.54635,-10.38024,6278.885
56.7,-10.53024,-0.5216481,0.01103052,0,0,0,0,0,9.449843,42.72081,0.521648,0,55.72328,-10.53024,6318.19
57.6,-10.68051,-0.5308704,0.01122553,0,0,0,0,0,9.600109,43.40014,0.5308704,0,56.91636,-10.68051,6353.634
58.5,-10.83064,-0.540685,0.01143306,0,0,0,0,0,9.750242,44.07885,0.540685,0,58.12276,-10.83064,6393.5
59.4,-10.98037,-0.551069,0.01165264,0,0,0,0,0,9.899976,44.75577,0.551069,0,59.34062,-10.98037,6437.41
60.3,-11.13037,-0.5629946,0.01190481,0,0,0,0,0,10.04998,45.43389,0.5629946,0,60.57571,-11.13037,6495.993
61.2,-11.28037,-0.5749039,0.01215664,0,0,0,0,0,10.19998,46.112,0.5749039,0,61.82624,-11.28037,6550.969
62.1,-11.43037,-0.5875513,0.01242408,0,0,0,0,0,10.34997,46.79012,0.5875513,0,63.09261,-11.43037,6610.835
63,-11.58037,-0.6002617,0.01269284,0,0,0,0,0,10.49997,47.46824,0.6002616,0,64.37522,-11.58037,6667.773
63.9,-11.73037,-0.6131496,0.01296536,0,0,0,0,0,10.64997,48.14635,0.6131496,0,65.67449,-11.73037,6723.014
64.8,-11.88037,-0.6262325,0.01324201,0,0,0,0,0,10.79997,48.82447,0.6262325,0,66.99087,-11.88037,6776.668
65.70001,-12.03024,-0.6399398,0.01353186,0,0,0,0,0,10.94984,49.50199,0.6399398,0,68.32362,-12.03024,6833.318
66.60001,-12.18024,-0.6534639,0.01381783,0,0,0,0,0,11.09984,50.18011,0.6534638,0,69.67558,-12.18024,6884.028
67.5,-12.33037,-0.6679783,0.01412475,0,0,0,0,0,11.24997,50.85883,0.6679783,0,71.04729,-12.33037,6941.066
68.4,-12.4801,-0.6824715,0.01443121,0,0,0,0,0,11.3997,51.53574,0.6824715,0,72.43435,-12.4801,6993.98
69.3,-12.6301,-0.6978031,0.01475541,0,0,0,0,0,11.5497,52.21386,0.6978031,0,73.84344,-12.6301,7051.04
70.20001,-12.78024,-0.7140679,0.01509933,0,0,0,0,0,11.69984,52.89257,0.7140679,0,75.27396,-12.78024,7112.907
71.10001,-12.93023,-0.7313589,0.01546496,0,0,0,0,0,11.84984,53.57069,0.7313589,0,76.72393,-12.93023,7180.274
72,-13.08037,-0.7488414,0.01583464,0,0,0,0,0,11.99997,54.24941,0.7488414,0,78.19656,-13.08037,7244.439
72.9,-13.2301,-0.7664621,0.01620724,0,0,0,0,0,12.1497,54.92633,0.7664621,0,79.68719,-13.2301,7305.196
73.8,-13.38037,-0.785318,0.01660595,0,0,0,0,0,12.29997,55.60565,0.785318,0,81.2058,-13.38037,7372.105
74.70001,-13.53037,-0.8051227,0.01702473,0,0,0,0,0,12.44997,56.28377,0.8051227,0,82.74507,-13.53037,7442.572
75.60001,-13.68023,-0.8250776,0.01744669,0,0,0,0,0,12.59984,56.96128,0.8250777,0,84.30701,-13.68023,7508.832
76.5,-13.8305,-0.8461027,0.01789128,0,0,0,0,0,12.7501,57.64061,0.8461027,0,85.898,-13.8305,7578.636
77.4,-13.98063,-0.8684877,0.01836462,0,0,0,0,0,12.90024,58.31933,0.8684878,0,87.51326,-13.98063,7654.497
78.3,-14.1305,-0.8919759,0.01886129,0,0,0,0,0,13.0501,58.99685,0.8919759,0,89.15212,-14.1305,7733.723
79.20001,-14.2805,-0.9169245,0.01938884,0,0,0,0,0,13.2001,59.67496,0.9169245,0,90.81975,-14.2805,7818.558
80.10001,-14.4305,-0.9426898,0.01993366,0,0,0,0,0,13.3501,60.35308,0.9426898,0,92.51568,-14.4305,7903.083
81.00001,-14.58036,-0.9695005,0.02050059,0,0,0,0,0,13.49997,61.03059,0.9695005,0,94.23932,-14.58036,7988.957
81.9,-14.73023,-0.9975203,0.02109308,0,0,0,0,0,13.64983,61.70811,0.9975203,0,95.9932,-14.73023,8076.94
82.8,-14.8801,-1.027255,0.02172184,0,0,0,0,0,13.7997,62.38562,1.027255,0,97.77837,-14.8801,8170.537
83.70001,-15.03023,-1.059063,0.02239442,0,0,0,0,0,13.94983,63.06434,1.059062,0,99.59927,-15.03023,8271.528
84.00401,-15.0809,-1.070786,0.02264233,0,0,0,0,0,14.0005,63.2934,1.070786,0,100.2214,-15.0809,8311.228