File: GFBaking/data/XG/XG_Compression_Data/XG_Compression_Specimen5.csv
Time sec,Extension mm,Load kgf,Compressive stress MPa,Cycle Count ,Total Cycle Count ,Repetitions Count ,Marked Data ,PIP Count ,Compressive extension mm,Compressive strain %,Compressive load kgf,Displacement (Strain 1) mm,True strain %,Corrected Position mm,True stress Pa
0,0.000133333,-0.008662446,0.0002704029,0,0,0,0,0,0,0,0.008662445,0,0,0.000133333,270.4029
0.9500001,-0.158133,-0.01653492,0.0005161464,0,0,0,0,0,0.1582663,0.6857291,0.01653492,0,0.688091,-0.158133,512.607
1.9,-0.3165326,-0.02361021,0.0007370053,0,0,0,0,0,0.3166659,1.372036,0.02361021,0,1.381535,-0.3165326,726.8933
2.85,-0.4749322,-0.02945464,0.0009194424,0,0,0,0,0,0.4750655,2.058343,0.02945464,0,2.079822,-0.4749322,900.5171
3.8,-0.6329318,-0.03510771,0.001095906,0,0,0,0,0,0.633065,2.742916,0.03510771,0,2.781237,-0.6329318,1065.846
4.75,-0.7911981,-0.04022558,0.001255663,0,0,0,0,0,0.7913314,3.428646,0.04022558,0,3.488803,-0.7911981,1212.611
5.7,-0.9498643,-0.04629837,0.001445228,0,0,0,0,0,0.9499977,4.116108,0.04629837,0,4.203218,-0.9498643,1385.741
6.65,-1.108397,-0.05193658,0.001621228,0,0,0,0,0,1.108531,4.802992,0.05193658,0,4.922168,-1.108397,1543.361
7.6,-1.266397,-0.05699396,0.001779097,0,0,0,0,0,1.26653,5.487566,0.05699396,0,5.643879,-1.266397,1681.468
8.55,-1.424797,-0.0625548,0.001952682,0,0,0,0,0,1.42493,6.173873,0.0625548,0,6.372683,-1.424797,1832.126
9.5,-1.58293,-0.06803933,0.002123884,0,0,0,0,0,1.583063,6.859025,0.06803934,0,7.105597,-1.58293,1978.207
10.45,-1.741462,-0.07291338,0.00227603,0,0,0,0,0,1.741596,7.545908,0.07291339,0,7.845797,-1.741462,2104.283
11.4,-1.900129,-0.07787501,0.00243091,0,0,0,0,0,1.900262,8.233371,0.077875,0,8.592147,-1.900129,2230.764
12.35,-2.058128,-0.08237226,0.002571295,0,0,0,0,0,2.058262,8.917945,0.08237226,0,9.340939,-2.058128,2341.988
13.3,-2.216261,-0.08737479,0.002727451,0,0,0,0,0,2.216395,9.603097,0.08737478,0,10.09602,-2.216261,2465.531
14.25,-2.374794,-0.0920538,0.002873509,0,0,0,0,0,2.374928,10.28998,0.0920538,0,10.85877,-2.374794,2577.825
15.2,-2.533194,-0.0974067,0.003040602,0,0,0,0,0,2.533327,10.97629,0.0974067,0,11.62674,-2.533194,2706.857
16.15,-2.69146,-0.1025193,0.003200195,0,0,0,0,0,2.691593,11.66202,0.1025193,0,12.4,-2.69146,2826.988
17.1,-2.84986,-0.1080881,0.003374027,0,0,0,0,0,2.849993,12.34832,0.1080881,0,13.17994,-2.84986,2957.391
18.05,-3.008126,-0.1140717,0.003560811,0,0,0,0,0,3.00826,13.03405,0.1140717,0,13.96536,-3.008126,3096.693
19,-3.166392,-0.1204422,0.003759668,0,0,0,0,0,3.166525,13.71978,0.1204422,0,14.75698,-3.166392,3243.85
19.95,-3.324925,-0.1268292,0.003959042,0,0,0,0,0,3.325058,14.40667,0.1268292,0,15.55628,-3.324925,3388.676
20.9,-3.483058,-0.1335636,0.004169261,0,0,0,0,0,3.483191,15.09182,0.1335636,0,16.35997,-3.483058,3540.043
21.85,-3.641591,-0.1403682,0.004381668,0,0,0,0,0,3.641725,15.7787,0.1403682,0,17.17224,-3.641591,3690.298
22.8,-3.799991,-0.1473787,0.004600505,0,0,0,0,0,3.800124,16.46501,0.1473787,0,17.99046,-3.799991,3843.032
23.75,-3.957857,-0.1545268,0.004823636,0,0,0,0,0,3.95799,17.149,0.1545268,0,18.81264,-3.957857,3996.431
24.7,-4.116524,-0.1625772,0.005074935,0,0,0,0,0,4.116657,17.83647,0.1625772,0,19.64586,-4.116524,4169.746
25.65,-4.274923,-0.1698573,0.005302187,0,0,0,0,0,4.275056,18.52277,0.1698573,0,20.48466,-4.274923,4320.075
26.6,-4.433189,-0.1776091,0.005544163,0,0,0,0,0,4.433322,19.2085,0.1776091,0,21.32984,-4.433189,4479.213
27.55,-4.591722,-0.1852682,0.005783247,0,0,0,0,0,4.591856,19.89539,0.1852682,0,22.18368,-4.591722,4632.648
28.5,-4.749722,-0.1911478,0.005966783,0,0,0,0,0,4.749855,20.57996,0.1911478,0,23.04195,-4.749722,4738.821
29.45,-4.907988,-0.1980459,0.00618211,0,0,0,0,0,4.908121,21.26569,0.1980459,0,23.90912,-4.907988,4867.442
30.4,-5.066521,-0.2056173,0.006418455,0,0,0,0,0,5.066655,21.95258,0.2056173,0,24.78535,-5.066521,5009.439
31.35,-5.224921,-0.211554,0.006603771,0,0,0,0,0,5.225054,22.63888,0.211554,0,25.66859,-5.224921,5108.751
32.3,-5.383054,-0.2179364,0.006803,0,0,0,0,0,5.383187,23.32403,0.2179364,0,26.55819,-5.383054,5216.266
33.25,-5.541453,-0.2232922,0.006970185,0,0,0,0,0,5.541586,24.01034,0.2232922,0,27.45729,-5.541453,5296.62
34.2,-5.699853,-0.2294866,0.007163548,0,0,0,0,0,5.699986,24.69665,0.2294866,0,28.36455,-5.699853,5394.392
35.15,-5.857986,-0.2358004,0.007360637,0,0,0,0,0,5.858119,25.3818,0.2358004,0,29.27857,-5.857986,5492.374
36.1,-6.016652,-0.2422952,0.007563374,0,0,0,0,0,6.016786,26.06926,0.2422952,0,30.20415,-6.016652,5591.658
37.05,-6.174918,-0.2471283,0.007714243,0,0,0,0,0,6.175051,26.75499,0.2471283,0,31.136,-6.174918,5650.298
38,-6.333051,-0.2521287,0.007870334,0,0,0,0,0,6.333185,27.44014,0.2521288,0,32.07583,-6.333051,5710.703
38.95,-6.491584,-0.2571576,0.008027311,0,0,0,0,0,6.491717,28.12703,0.2571576,0,33.02699,-6.491584,5769.468
39.9,-6.649717,-0.2621143,0.008182039,0,0,0,0,0,6.64985,28.81218,0.2621143,0,33.98484,-6.649717,5824.615
40.85,-6.807983,-0.2660445,0.008304723,0,0,0,0,0,6.808116,29.49791,0.2660445,0,34.95278,-6.807983,5855.004
41.8,-6.96665,-0.270752,0.008451669,0,0,0,0,0,6.966783,30.18537,0.270752,0,35.93266,-6.96665,5900.502
42.75,-7.124916,-0.2758623,0.008611188,0,0,0,0,0,7.125049,30.8711,0.2758623,0,36.91972,-7.124916,5952.82
43.7,-7.282916,-0.2795987,0.008727824,0,0,0,0,0,7.283049,31.55567,0.2795987,0,37.91495,-7.282916,5973.701
44.65,-7.441449,-0.2847854,0.008889728,0,0,0,0,0,7.441582,32.24256,0.2847854,0,38.92359,-7.441449,6023.453
45.6,-7.599715,-0.290109,0.009055907,0,0,0,0,0,7.599848,32.92828,0.2901089,0,39.94077,-7.599715,6073.952
46.55,-7.758114,-0.2959134,0.009237096,0,0,0,0,0,7.758248,33.61459,0.2959134,0,40.96929,-7.758114,6132.084
47.5,-7.916781,-0.3033747,0.009470004,0,0,0,0,0,7.916914,34.30206,0.3033747,0,42.01025,-7.916781,6221.598
48.45,-8.074647,-0.3100202,0.009677446,0,0,0,0,0,8.07478,34.98605,0.3100202,0,43.05683,-8.074647,6291.69
49.4,-8.233047,-0.3141618,0.009806731,0,0,0,0,0,8.23318,35.67236,0.3141618,0,44.11808,-8.233047,6308.439
50.35,-8.39158,-0.3193655,0.009969164,0,0,0,0,0,8.391713,36.35924,0.3193654,0,45.19161,-8.39158,6344.452
51.3,-8.549846,-0.3261647,0.01018141,0,0,0,0,0,8.549979,37.04497,0.3261647,0,46.27495,-8.549846,6409.708
52.25,-8.708245,-0.3344262,0.01043929,0,0,0,0,0,8.708379,37.73128,0.3344262,0,47.3711,-8.708245,6500.414
53.2,-8.866645,-0.3432511,0.01071477,0,0,0,0,0,8.866779,38.41759,0.3432511,0,48.47939,-8.866645,6598.413
54.15,-9.024511,-0.354565,0.01106794,0,0,0,0,0,9.024644,39.10158,0.354565,0,49.59629,-9.024511,6740.198
55.1,-9.183045,-0.3650822,0.01139624,0,0,0,0,0,9.183179,39.78847,0.3650822,0,50.73063,-9.183045,6861.848
56.05,-9.341577,-0.375878,0.01173323,0,0,0,0,0,9.34171,40.47535,0.3758779,0,51.87796,-9.341577,6984.166
57,-9.499843,-0.3865203,0.01206544,0,0,0,0,0,9.499976,41.16108,0.3865203,0,53.03666,-9.499843,7099.173
57.95,-9.658244,-0.3969889,0.01239222,0,0,0,0,0,9.658377,41.84739,0.3969889,0,54.20994,-9.658244,7206.401
58.9,-9.816643,-0.4085382,0.01275274,0,0,0,0,0,9.816776,42.53369,0.4085382,0,55.39714,-9.816643,7328.529
59.85,-9.974909,-0.4189034,0.01307629,0,0,0,0,0,9.975042,43.21942,0.4189034,0,56.59758,-9.974909,7424.795
60.8,-10.13304,-0.426666,0.01331861,0,0,0,0,0,10.13317,43.90457,0.426666,0,57.81159,-10.13304,7471.13
61.75,-10.29158,-0.4355355,0.01359548,0,0,0,0,0,10.29171,44.59146,0.4355356,0,59.04364,-10.29158,7533.055
62.7,-10.44997,-0.4471625,0.01395842,0,0,0,0,0,10.45011,45.27776,0.4471625,0,60.29001,-10.44997,7638.358
63.65,-10.60824,-0.4591182,0.01433162,0,0,0,0,0,10.60837,45.96349,0.4591182,0,61.55103,-10.60824,7744.308
64.60001,-10.76637,-0.4724069,0.01474643,0,0,0,0,0,10.76651,46.64864,0.4724069,0,62.82708,-10.76637,7867.423
65.55,-10.92451,-0.4859584,0.01516945,0,0,0,0,0,10.92464,47.3338,0.4859585,0,64.11962,-10.92451,7989.176
66.5,-11.08331,-0.4990341,0.01557762,0,0,0,0,0,11.08344,48.02184,0.4990341,0,65.43466,-11.08331,8096.959
67.45001,-11.24157,-0.5129844,0.01601308,0,0,0,0,0,11.24171,48.70757,0.5129844,0,66.76269,-11.24157,8213.5
68.4,-11.39984,-0.5269012,0.0164475,0,0,0,0,0,11.39997,49.3933,0.5269012,0,68.10861,-11.39984,8323.54
69.35001,-11.55811,-0.5413892,0.01689976,0,0,0,0,0,11.55824,50.07902,0.5413892,0,69.47289,-11.55811,8436.523
70.3,-11.71637,-0.5581497,0.01742294,0,0,0,0,0,11.71651,50.76475,0.5581498,0,70.85604,-11.71637,8578.23
71.25,-11.87477,-0.5727223,0.01787783,0,0,0,0,0,11.8749,51.45106,0.5727223,0,72.25978,-11.87477,8679.5
72.20001,-12.03344,-0.5905301,0.01843371,0,0,0,0,0,12.03357,52.13852,0.5905302,0,73.68593,-12.03344,8822.648
73.15,-12.19157,-0.6067278,0.01893933,0,0,0,0,0,12.1917,52.82367,0.6067278,0,75.12779,-12.19157,8934.883
74.10001,-12.34957,-0.6262114,0.01954753,0,0,0,0,0,12.3497,53.50825,0.6262114,0,76.58952,-12.34957,9087.987
75.05,-12.5081,-0.6461011,0.02016839,0,0,0,0,0,12.50824,54.19513,0.6461011,0,78.07798,-12.5081,9238.106
76,-12.6665,-0.6680157,0.02085247,0,0,0,0,0,12.66664,54.88144,0.6680157,0,79.58764,-12.6665,9408.335
76.95001,-12.8245,-0.688421,0.02148943,0,0,0,0,0,12.82463,55.56601,0.688421,0,81.11655,-12.8245,9548.612
77.9,-12.9833,-0.711649,0.02221451,0,0,0,0,0,12.98343,56.25405,0.711649,0,82.67712,-12.9833,9717.946
78.85001,-13.14143,-0.735132,0.02294754,0,0,0,0,0,13.14157,56.9392,0.735132,0,84.25572,-13.14143,9881.394
79.8,-13.2997,-0.7589848,0.02369212,0,0,0,0,0,13.29983,57.62493,0.7589847,0,85.861,-13.2997,10039.55
80.75001,-13.45823,-0.7856306,0.02452388,0,0,0,0,0,13.45837,58.31182,0.7856306,0,87.49525,-13.45823,10223.56
81.70001,-13.6165,-0.8112431,0.02532339,0,0,0,0,0,13.61663,58.99755,0.8112431,0,89.15383,-13.6165,10383.21
82.65,-13.77477,-0.8376728,0.02614841,0,0,0,0,0,13.7749,59.68327,0.8376728,0,90.84038,-13.77477,10542.18
83.60001,-13.9333,-0.8668243,0.02705839,0,0,0,0,0,13.93343,60.37016,0.8668243,0,92.55877,-13.9333,10723.2
84.55,-14.09143,-0.89782,0.02802593,0,0,0,0,0,14.09157,61.05531,0.89782,0,94.30277,-14.09143,10914.61
85.50001,-14.2497,-0.9295141,0.02901528,0,0,0,0,0,14.24983,61.74104,0.9295141,0,96.07923,-14.2497,11100.95
86.45001,-14.40823,-0.9631085,0.03006395,0,0,0,0,0,14.40837,62.42793,0.9631085,0,97.89091,-14.40823,11295.65
87.4,-14.5665,-0.9983359,0.03116359,0,0,0,0,0,14.56663,63.11366,0.9983359,0,99.73288,-14.5665,11495.11
88.35001,-14.72503,-1.035065,0.03231012,0,0,0,0,0,14.72516,63.80054,1.035065,0,101.6126,-14.72503,11696.09
89.25001,-14.87476,-1.07073,0.0334234,0,0,0,0,0,14.8749,64.4493,1.07073,0,103.421,-14.87476,11882.26