File: GFBaking/data/XG/XG_Compression_Data/XG_Compression_Specimen1.csv
Time sec,Extension mm,Load kgf,Compressive stress MPa,Cycle Count ,Total Cycle Count ,Repetitions Count ,Marked Data ,PIP Count ,Compressive extension mm,Compressive strain %,Compressive load kgf,Displacement (Strain 1) mm,True strain %,Corrected Position mm,True stress Pa
0,0,-0.003084175,6.510926E-005,0,0,0,0,0,0,0,0.003084176,0,0,0,65.10926
1,-0.1669329,-0.01123919,0.0002372676,0,0,0,0,0,0.1669329,0.8025621,0.01123918,0,0.8058,-0.1669329,235.3634
2,-0.3330659,-0.02010388,0.0004244079,0,0,0,0,0,0.3330659,1.601278,0.02010388,0,1.614237,-0.3330659,417.612
3,-0.4999988,-0.03032865,0.0006402606,0,0,0,0,0,0.4999988,2.40384,0.03032865,0,2.433204,-0.4999988,624.8697
4,-0.6667984,-0.04200994,0.0008868613,0,0,0,0,0,0.6667984,3.205761,0.04200994,0,3.258271,-0.6667984,858.4306
5,-0.8334646,-0.05649026,0.001192552,0,0,0,0,0,0.8334646,4.007041,0.05649026,0,4.089535,-0.8334646,1144.766
6,-1.000264,-0.07255638,0.00153172,0,0,0,0,0,1.000264,4.808962,0.07255638,0,4.928439,-1.000264,1458.06
7,-1.166531,-0.08837135,0.001865585,0,0,0,0,0,1.16653,5.60832,0.08837134,0,5.771725,-1.166531,1760.957
8,-1.333597,-0.1040336,0.002196228,0,0,0,0,0,1.333597,6.411523,0.1040336,0,6.626292,-1.333597,2055.416
9,-1.50013,-0.1194831,0.002522378,0,0,0,0,0,1.50013,7.212162,0.1194831,0,7.485461,-1.50013,2340.46
10,-1.666529,-0.1346925,0.002843459,0,0,0,0,0,1.666529,8.012159,0.1346925,0,8.351378,-1.666529,2615.636
11,-1.833462,-0.1493281,0.003152428,0,0,0,0,0,1.833462,8.814722,0.1493281,0,9.227673,-1.833462,2874.551
12,-2.000128,-0.1630483,0.003442072,0,0,0,0,0,2.000128,9.616002,0.1630483,0,10.11029,-2.000128,3111.082
13,-2.166928,-0.1769389,0.003735312,0,0,0,0,0,2.166928,10.41792,0.1769389,0,11.00149,-2.166928,3346.17
14,-2.333328,-0.1916184,0.004045208,0,0,0,0,0,2.333328,11.21792,0.1916184,0,11.89854,-2.333328,3591.42
15,-2.499994,-0.203869,0.004303828,0,0,0,0,0,2.499994,12.0192,0.203869,0,12.80516,-2.499994,3786.542
16,-2.66666,-0.2170137,0.004581321,0,0,0,0,0,2.66666,12.82048,0.2170137,0,13.72008,-2.66666,3993.974
17,-2.833593,-0.2293427,0.004841596,0,0,0,0,0,2.833593,13.62304,0.2293427,0,14.64493,-2.833593,4182.023
18,-2.999859,-0.2405209,0.005077577,0,0,0,0,0,2.999859,14.4224,0.2405209,0,15.57466,-2.999859,4345.268
19,-3.166659,-0.2512361,0.005303783,0,0,0,0,0,3.166659,15.22432,0.2512361,0,16.51615,-3.166659,4496.318
20,-3.333458,-0.2620165,0.005531366,0,0,0,0,0,3.333459,16.02624,0.2620165,0,17.46659,-3.333458,4644.895
21,-3.499991,-0.2725312,0.005753338,0,0,0,0,0,3.499991,16.82688,0.2725312,0,18.4246,-3.499991,4785.231
22,-3.666791,-0.2822469,0.005958444,0,0,0,0,0,3.666791,17.6288,0.2822469,0,19.39344,-3.666791,4908.042
23,-3.833191,-0.2920651,0.006165714,0,0,0,0,0,3.83319,18.4288,0.2920651,0,20.36939,-3.833191,5029.447
24,-4.000257,-0.3019514,0.00637442,0,0,0,0,0,4.000257,19.232,0.3019513,0,21.35894,-4.000257,5148.491
25,-4.16679,-0.3109066,0.006563472,0,0,0,0,0,4.16679,20.03264,0.3109066,0,22.35517,-4.16679,5248.635
26,-4.33319,-0.3192932,0.00674052,0,0,0,0,0,4.333189,20.83264,0.3192932,0,23.36061,-4.33319,5336.291
27,-4.500122,-0.3273559,0.006910729,0,0,0,0,0,4.500122,21.6352,0.3273559,0,24.37954,-4.500122,5415.579
28,-4.666655,-0.3348665,0.007069284,0,0,0,0,0,4.666656,22.43584,0.3348665,0,25.40648,-4.666655,5483.23
29,-4.833588,-0.3418742,0.00721722,0,0,0,0,0,4.833589,23.23841,0.3418742,0,26.44657,-4.833588,5540.054
30,-5.000121,-0.3481898,0.007350548,0,0,0,0,0,5.000121,24.03904,0.3481898,0,27.49507,-5.000121,5583.547
31,-5.166654,-0.3547533,0.007489108,0,0,0,0,0,5.166654,24.83968,0.3547533,0,28.55468,-5.166654,5628.837
32,-5.333454,-0.360573,0.007611965,0,0,0,0,0,5.333454,25.64161,0.360573,0,29.62736,-5.333454,5660.135
33,-5.500386,-0.3668232,0.007743913,0,0,0,0,0,5.500386,26.44417,0.3668232,0,30.71254,-5.500386,5696.099
34,-5.66652,-0.370901,0.007829998,0,0,0,0,0,5.66652,27.24288,0.370901,0,31.80434,-5.66652,5696.881
35,-5.833319,-0.3762607,0.007943146,0,0,0,0,0,5.833319,28.0448,0.3762607,0,32.91265,-5.833319,5715.506
36,-6.000119,-0.3814766,0.008053257,0,0,0,0,0,6.000119,28.84673,0.3814766,0,34.03338,-6.000119,5730.156
37,-6.166652,-0.3861212,0.008151309,0,0,0,0,0,6.166652,29.64737,0.3861212,0,35.16499,-6.166652,5734.661
38,-6.333451,-0.3906761,0.008247466,0,0,0,0,0,6.333451,30.44929,0.3906761,0,36.3114,-6.333451,5736.172
39,-6.499851,-0.3961997,0.008364073,0,0,0,0,0,6.499851,31.24928,0.3961997,0,37.4683,-6.499851,5750.36
40,-6.666917,-0.4013448,0.00847269,0,0,0,0,0,6.666917,32.05249,0.4013448,0,38.64347,-6.666917,5756.982
41,-6.83345,-0.4057687,0.008566082,0,0,0,0,0,6.83345,32.85313,0.4057687,0,39.82878,-6.83345,5751.856
42,-6.999849,-0.4106065,0.008668212,0,0,0,0,0,6.999849,33.65312,0.4106065,0,41.02735,-6.999849,5751.088
43,-7.166649,-0.415281,0.008766892,0,0,0,0,0,7.166649,34.45504,0.415281,0,42.24339,-7.166649,5746.256
44,-7.333315,-0.4203854,0.008874652,0,0,0,0,0,7.333315,35.25632,0.4203855,0,43.47342,-7.333315,5745.776
45,-7.500248,-0.4252885,0.00897816,0,0,0,0,0,7.500248,36.05889,0.4252886,0,44.72076,-7.500248,5740.735
46,-7.666781,-0.430011,0.009077854,0,0,0,0,0,7.666781,36.85952,0.4300109,0,45.98082,-7.666781,5731.8
47,-7.833181,-0.4336792,0.009155292,0,0,0,0,0,7.833181,37.65952,0.4336792,0,47.25593,-7.833181,5707.453
48,-8.000114,-0.4387224,0.009261758,0,0,0,0,0,8.000114,38.46209,0.4387224,0,48.55167,-8.000114,5699.493
49,-8.166914,-0.4434654,0.009361886,0,0,0,0,0,8.166914,39.26401,0.4434654,0,49.86337,-8.166914,5686.034
50,-8.33318,-0.4475231,0.009447549,0,0,0,0,0,8.33318,40.06337,0.4475231,0,51.18823,-8.33318,5662.543
51,-8.499979,-0.4518856,0.009539643,0,0,0,0,0,8.499979,40.86528,0.4518856,0,52.5352,-8.499979,5641.241
52,-8.666779,-0.4574745,0.00965763,0,0,0,0,0,8.666779,41.66721,0.4574745,0,53.90058,-8.666779,5633.565
53,-8.833446,-0.4633118,0.009780859,0,0,0,0,0,8.833446,42.46849,0.4633118,0,55.28374,-8.833446,5627.076
54,-9.000111,-0.4693373,0.009908061,0,0,0,0,0,9.000112,43.26977,0.4693373,0,56.68629,-9.000111,5620.866
55,-9.166645,-0.4758552,0.01004566,0,0,0,0,0,9.166645,44.07041,0.4758552,0,58.10766,-9.166645,5618.497
56,-9.333577,-0.4832031,0.01020078,0,0,0,0,0,9.333577,44.87297,0.4832031,0,59.553,-9.333577,5623.387
57,-9.500244,-0.4904294,0.01035333,0,0,0,0,0,9.500244,45.67425,0.4904294,0,61.01718,-9.500244,5624.525
58,-9.66651,-0.4977253,0.01050735,0,0,0,0,0,9.66651,46.47361,0.4977253,0,62.49953,-9.66651,5624.208
59,-9.833443,-0.5055156,0.01067181,0,0,0,0,0,9.833443,47.27617,0.5055156,0,64.01026,-9.833443,5626.589
60,-10.00011,-0.5131622,0.01083324,0,0,0,0,0,10.00011,48.07745,0.5131621,0,65.54169,-10.00011,5624.894
61,-10.16691,-0.5203708,0.01098542,0,0,0,0,0,10.16691,48.87937,0.5203708,0,67.0982,-10.16691,5615.815
62,-10.33344,-0.5292228,0.01117229,0,0,0,0,0,10.33344,49.68,0.5292228,0,68.67677,-10.33344,5621.896
63,-10.49997,-0.538728,0.01137295,0,0,0,0,0,10.49997,50.48065,0.538728,0,70.28066,-10.49997,5631.812
64,-10.66691,-0.5481137,0.01157109,0,0,0,0,0,10.66691,51.28321,0.5481137,0,71.91465,-10.66691,5637.064
65,-10.83371,-0.5578908,0.01177749,0,0,0,0,0,10.83371,52.08513,0.5578908,0,73.57443,-10.83371,5643.17
66,-10.99984,-0.5676786,0.01198412,0,0,0,0,0,10.99984,52.88385,0.5676786,0,75.25542,-10.99984,5646.457
67,-11.16677,-0.5779261,0.01220045,0,0,0,0,0,11.16677,53.68641,0.5779261,0,76.97347,-11.16677,5650.468
68,-11.33371,-0.5875468,0.01240355,0,0,0,0,0,11.33371,54.48897,0.5875468,0,78.72155,-11.33371,5644.985
69,-11.50011,-0.5979034,0.01262219,0,0,0,0,0,11.5001,55.28897,0.5979034,0,80.49499,-11.50011,5643.511
70,-11.66677,-0.6076911,0.01282881,0,0,0,0,0,11.66677,56.09025,0.607691,0,82.30338,-11.66677,5633.1
71,-11.8333,-0.6196496,0.01308127,0,0,0,0,0,11.8333,56.89089,0.6196496,0,84.14358,-11.8333,5639.219
72,-12.00024,-0.6325857,0.01335436,0,0,0,0,0,12.00024,57.69345,0.6325857,0,86.02283,-12.00024,5649.768
73,-12.1669,-0.644929,0.01361494,0,0,0,0,0,12.1669,58.49473,0.6449291,0,87.93497,-12.1669,5650.916
74,-12.3333,-0.6579164,0.01388911,0,0,0,0,0,12.3333,59.29473,0.6579164,0,89.88126,-12.3333,5653.599
75,-12.5001,-0.6711462,0.0141684,0,0,0,0,0,12.5001,60.09665,0.6711462,0,91.87098,-12.5001,5653.666
76,-12.66677,-0.685865,0.01447913,0,0,0,0,0,12.66677,60.89793,0.685865,0,93.89948,-12.66677,5661.638
77,-12.83357,-0.7015058,0.01480931,0,0,0,0,0,12.83357,61.69985,0.7015058,0,95.97163,-12.83357,5671.989
78,-13.00023,-0.7173598,0.015144,0,0,0,0,0,13.00023,62.50113,0.7173598,0,98.08594,-13.00023,5678.83
79,-13.16663,-0.7341116,0.01549765,0,0,0,0,0,13.16663,63.30113,0.7341117,0,100.2424,-13.16663,5687.462
80,-13.33343,-0.7526234,0.01588844,0,0,0,0,0,13.33343,64.10305,0.7526234,0,102.4518,-13.33343,5703.467
81.00001,-13.50023,-0.7723767,0.01630545,0,0,0,0,0,13.50023,64.90497,0.7723767,0,104.7111,-13.50023,5722.404
82.00001,-13.66663,-0.7947494,0.01677776,0,0,0,0,0,13.66663,65.70497,0.7947494,0,107.017,-13.66663,5753.936
83.00001,-13.83357,-0.8181683,0.01727215,0,0,0,0,0,13.83357,66.50753,0.8181683,0,109.385,-13.83357,5784.868
84.00001,-14.00023,-0.8431802,0.01780017,0,0,0,0,0,14.00023,67.30881,0.8431802,0,111.8065,-14.00023,5819.086
85.00001,-14.16677,-0.8687819,0.01834064,0,0,0,0,0,14.16677,68.10945,0.8687819,0,114.286,-14.16677,5848.93
86.00001,-14.33343,-0.8957852,0.0189107,0,0,0,0,0,14.33343,68.91073,0.8957852,0,116.8307,-14.33343,5879.198
87.00001,-14.49996,-0.9244717,0.01951629,0,0,0,0,0,14.49996,69.71136,0.9244717,0,119.4398,-14.49996,5911.218
88.00001,-14.6669,-0.9555538,0.02017246,0,0,0,0,0,14.6669,70.51393,0.9555538,0,122.1252,-14.6669,5948.065
89.00001,-14.83343,-0.9883487,0.02086478,0,0,0,0,0,14.83343,71.31457,0.9883487,0,124.8781,-14.83343,5985.153
90.00001,-14.99983,-1.0212,0.02155831,0,0,0,0,0,14.99983,72.11457,1.0212,0,127.7066,-14.99983,6011.626
91.00001,-15.16676,-1.058094,0.02233715,0,0,0,0,0,15.16676,72.91713,1.058094,0,130.6269,-15.16676,6049.542
91.33801,-15.2233,-1.070736,0.02260404,0,0,0,0,0,15.2233,73.18893,1.070736,0,131.6355,-15.2233,6060.387