File: GFBaking/data/XG/XG_Compression_Data/XG_Compression_Specimen4.csv
Time sec,Extension mm,Load kgf,Compressive stress MPa,Cycle Count ,Total Cycle Count ,Repetitions Count ,Marked Data ,PIP Count ,Compressive extension mm,Compressive strain %,Compressive load kgf,Displacement (Strain 1) mm,True strain %,Corrected Position mm,True stress Pa
0,-0.000266666,-0.03197981,0.0008646371,0,0,0,0,0,0,0,0.03197981,0,0,-0.000266666,864.6371
1,-0.1667996,-0.05186466,0.001402263,0,0,0,0,0,0.1665329,0.6437299,0.05186466,0,0.6458108,-0.1667996,1393.236
2,-0.3337325,-0.06765538,0.001829196,0,0,0,0,0,0.3334658,1.289006,0.06765538,0,1.297386,-0.3337325,1805.618
3,-0.5001321,-0.08303037,0.002244889,0,0,0,0,0,0.4998654,1.93222,0.08303037,0,1.951132,-0.5001321,2201.513
4,-0.666665,-0.09725884,0.002629584,0,0,0,0,0,0.6663984,2.57595,0.09725884,0,2.609709,-0.666665,2561.847
5,-0.833598,-0.111826,0.003023435,0,0,0,0,0,0.8333313,3.221226,0.111826,0,3.27425,-0.833598,2926.044
6,-1.000398,-0.1263421,0.003415906,0,0,0,0,0,1.000131,3.865987,0.1263421,0,3.9427,-1.000398,3283.848
7,-1.166797,-0.1405839,0.003800962,0,0,0,0,0,1.16653,4.509202,0.1405839,0,4.614029,-1.166797,3629.569
8,-1.333197,-0.1550147,0.004191128,0,0,0,0,0,1.33293,5.152416,0.1550147,0,5.289896,-1.333197,3975.183
9,-1.50013,-0.1695047,0.004582893,0,0,0,0,0,1.499863,5.797692,0.1695047,0,5.972551,-1.50013,4317.191
10,-1.667063,-0.1836631,0.004965692,0,0,0,0,0,1.666796,6.442968,0.1836631,0,6.659897,-1.667063,4645.754
11,-1.833196,-0.1967093,0.005318424,0,0,0,0,0,1.832929,7.085152,0.1967093,0,7.348673,-1.833196,4941.605
12,-2.000128,-0.2107109,0.005696984,0,0,0,0,0,1.999862,7.730428,0.2107109,0,8.045577,-2.000128,5256.583
13,-2.166795,-0.2240172,0.006056746,0,0,0,0,0,2.166528,8.374674,0.2240172,0,8.746246,-2.166795,5549.514
14,-2.333461,-0.2360379,0.00638175,0,0,0,0,0,2.333194,9.018919,0.2360379,0,9.45186,-2.333461,5806.185
15,-2.50026,-0.2486729,0.00672336,0,0,0,0,0,2.499994,9.663679,0.2486729,0,10.16306,-2.50026,6073.636
16,-2.666527,-0.2604619,0.007042101,0,0,0,0,0,2.66626,10.30638,0.2604619,0,10.87705,-2.666527,6316.315
17,-2.833593,-0.2720279,0.00735481,0,0,0,0,0,2.833327,10.95217,0.2720279,0,11.59966,-2.833593,6549.299
18,-3.000393,-0.281748,0.007617611,0,0,0,0,0,3.000126,11.59693,0.281748,0,12.32635,-3.000393,6734.202
19,-3.166792,-0.2909798,0.007867211,0,0,0,0,0,3.166525,12.24014,0.2909798,0,13.0566,-3.166792,6904.253
20,-3.333192,-0.2998945,0.008108237,0,0,0,0,0,3.332925,12.88336,0.2998945,0,13.79223,-3.333192,7063.623
21,-3.500391,-0.3086232,0.008344236,0,0,0,0,0,3.500125,13.52967,0.3086232,0,14.53688,-3.500391,7215.289
22,-3.666924,-0.3165499,0.00855855,0,0,0,0,0,3.666657,14.1734,0.3165499,0,15.28412,-3.666924,7345.513
23,-3.833591,-0.3243574,0.008769642,0,0,0,0,0,3.833324,14.81764,0.3243575,0,16.03758,-3.833591,7470.188
24,-3.999857,-0.3310156,0.008949658,0,0,0,0,0,3.99959,15.46034,0.3310156,0,16.79494,-3.999857,7566.01
25,-4.16679,-0.3377073,0.009130581,0,0,0,0,0,4.166523,16.10562,0.3377073,0,17.56115,-4.16679,7660.045
26,-4.333723,-0.3433945,0.009284347,0,0,0,0,0,4.333457,16.75089,0.3433945,0,18.33328,-4.333723,7729.136
27,-4.499856,-0.348398,0.009419625,0,0,0,0,0,4.499589,17.39308,0.348398,0,19.10767,-4.499856,7781.262
28,-4.666789,-0.353044,0.00954524,0,0,0,0,0,4.666522,18.03835,0.353044,0,19.89188,-4.666789,7823.436
29,-4.833455,-0.3566624,0.009643069,0,0,0,0,0,4.833188,18.6826,0.3566624,0,20.68101,-4.833455,7841.493
30,-5.000121,-0.3594234,0.009717719,0,0,0,0,0,4.999854,19.32684,0.3594234,0,21.47643,-5.000121,7839.59
31,-5.166921,-0.3618856,0.00978429,0,0,0,0,0,5.166655,19.97161,0.3618856,0,22.27887,-5.166921,7830.21
32,-5.333187,-0.3631959,0.009819716,0,0,0,0,0,5.33292,20.6143,0.3631959,0,23.0852,-5.333187,7795.45
33,-5.50012,-0.3644151,0.009852679,0,0,0,0,0,5.499853,21.25958,0.3644151,0,23.90136,-5.50012,7758.041
34,-5.66692,-0.3660148,0.009895931,0,0,0,0,0,5.666653,21.90434,0.3660148,0,24.72357,-5.66692,7728.293
35,-5.833586,-0.3684189,0.009960931,0,0,0,0,0,5.833319,22.54859,0.3684189,0,25.55194,-5.833586,7714.881
36,-5.999852,-0.3704803,0.01001666,0,0,0,0,0,5.999585,23.19128,0.3704803,0,26.38521,-5.999852,7693.672
37,-6.166918,-0.3735817,0.01010051,0,0,0,0,0,6.166651,23.83708,0.3735816,0,27.22954,-6.166918,7692.848
38,-6.333584,-0.3765229,0.01018004,0,0,0,0,0,6.333318,24.48132,0.376523,0,28.07901,-6.333584,7687.831
39,-6.500117,-0.3795416,0.01026165,0,0,0,0,0,6.499851,25.12505,0.3795416,0,28.93508,-6.500117,7683.409
40,-6.666517,-0.3832249,0.01036124,0,0,0,0,0,6.66625,25.76826,0.3832249,0,29.79784,-6.666517,7691.328
41,-6.83345,-0.3860768,0.01043835,0,0,0,0,0,6.833183,26.41354,0.3860768,0,30.67092,-6.83345,7681.208
42,-7.000383,-0.388526,0.01050457,0,0,0,0,0,7.000117,27.05882,0.388526,0,31.55168,-7.000383,7662.154
43,-7.166649,-0.3912125,0.0105772,0,0,0,0,0,7.166382,27.70152,0.3912125,0,32.4367,-7.166649,7647.155
44,-7.333449,-0.3940518,0.01065396,0,0,0,0,0,7.333182,28.34628,0.3940518,0,33.33251,-7.333449,7633.962
45,-7.500115,-0.3977808,0.01075479,0,0,0,0,0,7.499848,28.99052,0.3977808,0,34.23568,-7.500115,7636.917
46,-7.666915,-0.4013731,0.01085191,0,0,0,0,0,7.666648,29.63528,0.4013731,0,35.14782,-7.666915,7635.917
47,-7.833447,-0.4044404,0.01093484,0,0,0,0,0,7.833181,30.27901,0.4044404,0,36.06688,-7.833447,7623.879
48,-7.999848,-0.4077171,0.01102343,0,0,0,0,0,7.999581,30.92223,0.4077171,0,36.99372,-7.999848,7614.741
49,-8.166781,-0.4106588,0.01110297,0,0,0,0,0,8.166514,31.56751,0.4106588,0,37.93224,-8.166781,7598.038
50,-8.333713,-0.413624,0.01118314,0,0,0,0,0,8.333447,32.21278,0.413624,0,38.87965,-8.333713,7580.738
51,-8.500113,-0.4174043,0.01128535,0,0,0,0,0,8.499846,32.856,0.4174043,0,39.83306,-8.500113,7577.433
52,-8.666646,-0.4215218,0.01139667,0,0,0,0,0,8.666379,33.49973,0.4215218,0,40.79641,-8.666646,7578.817
53,-8.833579,-0.4253312,0.01149966,0,0,0,0,0,8.833312,34.145,0.4253312,0,41.77149,-8.833579,7573.104
54,-9.000111,-0.4290353,0.01159981,0,0,0,0,0,8.999845,34.78873,0.4290353,0,42.75379,-9.000111,7564.386
55,-9.166778,-0.4328737,0.01170359,0,0,0,0,0,9.166512,35.43298,0.4328738,0,43.74664,-9.166778,7556.661
56,-9.333177,-0.4365611,0.01180329,0,0,0,0,0,9.332911,36.07619,0.4365611,0,44.74783,-9.333177,7545.112
57,-9.500244,-0.4401055,0.01189912,0,0,0,0,0,9.499977,36.72198,0.4401055,0,45.76322,-9.500244,7529.526
58,-9.667044,-0.442738,0.01197029,0,0,0,0,0,9.666778,37.36674,0.442738,0,46.78738,-9.667044,7497.384
59,-9.833443,-0.4459828,0.01205802,0,0,0,0,0,9.833177,38.00996,0.4459828,0,47.81965,-9.833443,7474.773
60,-10.00011,-0.4485758,0.01212813,0,0,0,0,0,9.999843,38.6542,0.4485758,0,48.86435,-10.00011,7440.098
61,-10.16678,-0.4508766,0.01219034,0,0,0,0,0,10.16651,39.29845,0.4508766,0,49.9201,-10.16678,7399.723
62,-10.33344,-0.453751,0.01226805,0,0,0,0,0,10.33317,39.94269,0.453751,0,50.98709,-10.33344,7367.862
63,-10.50037,-0.4568384,0.01235153,0,0,0,0,0,10.50011,40.58797,0.4568384,0,52.06735,-10.50037,7338.292
64,-10.66651,-0.4596801,0.01242836,0,0,0,0,0,10.66624,41.23015,0.4596801,0,53.15412,-10.66651,7304.126
65,-10.83357,-0.4632634,0.01252524,0,0,0,0,0,10.83331,41.87595,0.4632634,0,54.25906,-10.83357,7280.176
66,-11.00037,-0.4670249,0.01262694,0,0,0,0,0,11.00011,42.52071,0.4670249,0,55.37454,-11.00037,7257.874
67,-11.16677,-0.4709659,0.01273349,0,0,0,0,0,11.16651,43.16392,0.4709659,0,56.49989,-11.16677,7237.216
68,-11.33331,-0.4750209,0.01284313,0,0,0,0,0,11.33304,43.80765,0.4750209,0,57.63895,-11.33331,7216.854
69,-11.50037,-0.4801048,0.01298058,0,0,0,0,0,11.5001,44.45344,0.4801048,0,58.79486,-11.50037,7210.264
70,-11.66691,-0.4854034,0.01312384,0,0,0,0,0,11.66664,45.09717,0.4854034,0,59.96054,-11.66691,7205.357
71,-11.83344,-0.4917013,0.01329411,0,0,0,0,0,11.83317,45.7409,0.4917012,0,61.13995,-11.83344,7213.265
72,-11.99997,-0.498875,0.01348807,0,0,0,0,0,11.9997,46.38463,0.498875,0,62.33343,-11.99997,7231.677
73,-12.1669,-0.5064613,0.01369318,0,0,0,0,0,12.16664,47.02991,0.5064613,0,63.54427,-12.1669,7253.288
74,-12.3337,-0.5143697,0.013907,0,0,0,0,0,12.33344,47.67467,0.5143697,0,64.76896,-12.3337,7276.882
75,-12.5001,-0.5228212,0.0141355,0,0,0,0,0,12.49984,48.31788,0.5228212,0,66.00584,-12.5001,7305.526
76,-12.6669,-0.5317799,0.01437772,0,0,0,0,0,12.66664,48.96264,0.5317799,0,67.26123,-12.6669,7338.007
77,-12.83344,-0.5423173,0.01466261,0,0,0,0,0,12.83317,49.60637,0.5423173,0,68.53055,-12.83344,7389.023
78,-13.0001,-0.5540246,0.01497914,0,0,0,0,0,12.99983,50.25062,0.5540246,0,69.81721,-13.0001,7452.032
79,-13.1669,-0.5656702,0.01529401,0,0,0,0,0,13.16664,50.89538,0.5656702,0,71.12171,-13.1669,7510.064
80,-13.3333,-0.5776779,0.01561866,0,0,0,0,0,13.33303,51.53859,0.5776779,0,72.44024,-13.3333,7569.022
81.00001,-13.50023,-0.5910509,0.01598022,0,0,0,0,0,13.49997,52.18387,0.5910509,0,73.78072,-13.50023,7641.124
82.00001,-13.66703,-0.6057866,0.01637863,0,0,0,0,0,13.66677,52.82863,0.6057866,0,75.1383,-13.66703,7726.026
83.00001,-13.83343,-0.6210747,0.01679198,0,0,0,0,0,13.83317,53.47184,0.6210747,0,76.51126,-13.83343,7812.997
84.00001,-14.0001,-0.6374681,0.0172352,0,0,0,0,0,13.99983,54.11609,0.6374681,0,77.90556,-14.0001,7908.186
85.00001,-14.1669,-0.6555156,0.01772315,0,0,0,0,0,14.16663,54.76085,0.6555156,0,79.32074,-14.1669,8017.804
86.00001,-14.33356,-0.6744414,0.01823485,0,0,0,0,0,14.3333,55.40509,0.6744414,0,80.75505,-14.33356,8131.815
87.00001,-14.50023,-0.6945208,0.01877774,0,0,0,0,0,14.49996,56.04934,0.6945208,0,82.21026,-14.50023,8252.938
88.00001,-14.66663,-0.7155545,0.01934642,0,0,0,0,0,14.66636,56.69255,0.7155545,0,83.68456,-14.66663,8378.442
89.00001,-14.83343,-0.7382972,0.01996132,0,0,0,0,0,14.83316,57.33732,0.7382972,0,85.18456,-14.83343,8516.034
90.00001,-15.00036,-0.7613977,0.02058588,0,0,0,0,0,15.0001,57.98259,0.7613977,0,86.70861,-15.00036,8649.655
90.3,-15.04996,-0.7680784,0.02076651,0,0,0,0,0,15.0497,58.17432,0.7680784,0,87.16597,-15.04996,8685.734