File: FirefighterJacket/data/DMA/dma1.csv
Time,Sample,Program Temperature,Frequency,Raw Dynamic Force,Raw Static Force,In-Phase Angle,Out-Of-Phase Angle,Zero Displacement,Min Displacement,Max Displacement,Spring     ,C*     ,Measured     ,Corrected     ,Corrected     ,Stiffness*,Total     ,Stiffness     ,Inertia     ,Sample     ,Ratio of     ,Total     ,Sample     ,Total Applied,Static Force,Static     ,Static     ,Static     ,Static Stress,Static     ,Static Strain,Static     ,Dynamic Force,Displacement,Dynamic     ,Dynamic     ,Storage Modulus,Loss Modulus,Tan Delta,Loss Viscosity,Storage     ,Complex Viscosity,Shear Storage Modulus,Shear Loss Modulus,Complex Modulus,Shear Complex Modulus
          ,,,          ,     ,,,,               ,               ,               ,Stiffness     ,          ,Tan Delta     ,Total Tan Delta,Total Delta,          ,Stiffness',Less Spring,          ,Stiffness',Sample to Total,Stiffness'',Stiffness'',Static Force,          ,Force Corrected,Displacement,Displacement Co,          ,Stress Correcte,          ,Strain Correcte,          ,Amplitude     ,Stress     ,Strain     ,,          ,          ,               ,Viscosity     ,Viscosity     ,Modulus     ,Modulus     ,,
0,26.4,27,1.000001,313,2281,939956.875,228894.875,43250612.375,40538.625,43540.875,0.000044,967425,0.243516,0.230069,0.226134,16959,16569.5,14249.8,1.863819,14251.7,0.860018,3822.98,3821.61,1.220025,1.375355,0,0.066961,0,423121,0,0.011852,0,0.701738,0.04678,215886,0.00828,2.47722e+07,6.64269e+06,0.268151,1.05722e+06,3.94261e+06,4.0819e+06,9.17489e+06,2.46026e+06,2.56474e+07,9.49902e+06
7.376542,41.7125,41.7531,1.000001,332,2296,973996.25,217001.75,43796525,41008.625,44091,0.000044,997877,0.222795,0.209467,0.206481,17439.5,17114.6,14799.8,1.863819,14801.6,0.86476,3595.39,3594.02,1.298232,1.413265,0.03791,0.049694,0.017268,434784,11662.7,0.008795,0.003056,0.748439,0.048457,230254,0.008576,2.57281e+07,6.24711e+06,0.242812,994257,4.09476e+06,4.21374e+06,9.52894e+06,2.31374e+06,2.64757e+07,9.80582e+06
14.9873,56.95,56.9745,1.000001,396,2344,963829,218989.75,45191103.75,42336.25,45440.5,0.000044,988394,0.227208,0.213855,0.210682,21000.9,20602.4,18296.3,1.863819,18298.2,0.888079,4421.42,4420.05,1.548493,1.561367,0.186012,0.005583,0.061379,480347,57225.5,0.000988,0.010864,0.91679,0.047926,282046,0.008483,3.18058e+07,7.68291e+06,0.241556,1.22277e+06,5.06205e+06,5.20764e+06,1.17799e+07,2.84552e+06,3.27206e+07,1.21187e+07
22.52241,72.0375,72.0448,1.000001,455,2387,962705.25,217674.75,46901099.25,43954.5,47099.125,0.000044,987007,0.226107,0.212761,0.209635,24163.7,23722,21419.6,1.863819,21421.5,0.902949,5067.53,5066.17,1.772686,1.661006,0.28565,0.048506,0.018456,511000,87878.9,0.008585,0.003267,1.07102,0.047846,329494,0.008468,3.72347e+07,8.80598e+06,0.2365,1.40151e+06,5.92607e+06,6.08955e+06,1.37906e+07,3.26147e+06,3.82618e+07,1.4171e+07
29.379,85.8,85.758,1.000001,551,2459,965742.125,218179.625,48647709.375,45620.875,48803,0.000044,990081,0.225919,0.212573,0.209456,29171.2,28661,26354.3,1.863819,26356.1,0.919523,6122.34,6120.98,2.148078,1.908753,0.533398,0.103752,0.036791,587218,164097,0.018363,0.006512,1.3208,0.047958,406337,0.008488,4.5812e+07,1.06394e+07,0.232241,1.69332e+06,7.29121e+06,7.48526e+06,1.69674e+07,3.94053e+06,4.70313e+07,1.7419e+07
36.5244,100.0125,100.049,1.000001,732,2596,966480.875,212770.625,50954836.875,47869.625,51058,0.000044,989624,0.22015,0.206836,0.20396,38771.6,38194.3,35870.1,1.863819,35872,0.939151,7951.31,7949.93,2.862367,2.451614,1.076258,0.176728,0.109766,754227,331106,0.031279,0.019428,1.792129,0.047917,551339,0.008481,6.23524e+07,1.38185e+07,0.22162,2.19928e+06,9.92369e+06,1.01645e+07,2.30935e+07,5.11797e+06,6.38653e+07,2.36538e+07
44.249,115.5625,115.498,1.000001,1278,3005,957836.75,196840.25,55246198,52139.875,55267.625,0.000046,977853,0.205505,0.192268,0.18995,68506.2,67992.3,65603.6,1.863819,65605.5,0.964869,13223.2,13221.8,4.994804,4.248406,2.87305,0.312466,0.245505,1.307e+06,883879,0.055304,0.043452,3.214563,0.047252,988944,0.008363,1.14035e+08,2.2982e+07,0.201535,3.6577e+06,1.81492e+07,1.85141e+07,4.22352e+07,8.51187e+06,1.16328e+08,4.30844e+07
48.9186,124.925,124.837,1.000001,1278,3005,913263.125,179375.375,56147956.125,53092.875,56078.25,0.000046,930712,0.196411,0.183219,0.181209,71976.1,71596.4,69189.5,1.863819,69191.4,0.966384,13276.3,13274.9,4.994804,4.174086,2.79873,0.340989,0.274028,1.28414e+06,861015,0.060352,0.0485,3.219611,0.045022,990497,0.007968,1.20268e+08,2.30743e+07,0.191857,3.67239e+06,1.91412e+07,1.94903e+07,4.45437e+07,8.54604e+06,1.22462e+08,4.53561e+07
53.6561,134.35,134.312,1.000001,1278,3005,872030.5,167404.5,56749575.75,53759.125,56618.25,0.000046,887954,0.191971,0.1788,0.17693,75442.1,75145.2,72725.5,1.863819,72727.3,0.9678,13606,13604.6,4.994804,4.123647,2.748292,0.360019,0.293057,1.26862e+06,845498,0.06372,0.051869,3.224329,0.042962,991948,0.007604,1.26414e+08,2.36474e+07,0.187063,3.7636e+06,2.01194e+07,2.04684e+07,4.68201e+07,8.75831e+06,1.28607e+08,4.76322e+07
58.348,143.8,143.696,1.000001,1278,3005,832365.375,157247.875,57245259.375,54319.125,57042.625,0.000046,847089,0.188917,0.17576,0.173983,79081.5,78858.2,76427.4,1.863819,76429.3,0.969176,14044.1,14042.6,4.994804,4.081554,2.706199,0.375697,0.308736,1.25567e+06,832548,0.066495,0.054644,3.228912,0.040982,993359,0.007253,1.32849e+08,2.44088e+07,0.183734,3.88478e+06,2.11435e+07,2.14975e+07,4.92033e+07,9.0403e+06,1.35073e+08,5.00269e+07
63.052,153.2375,153.104,1.000001,1278,3005,793382.25,148649.25,57687066.25,54823.875,57430.375,0.000047,807188,0.187361,0.174212,0.172481,82990.7,82830,80389,1.863819,80390.9,0.970531,14631,14629.6,4.994804,4.043616,2.668261,0.389672,0.322711,1.244e+06,820877,0.068968,0.057117,3.233427,0.039037,994748,0.006909,1.39735e+08,2.5429e+07,0.18198,4.04715e+06,2.22395e+07,2.26047e+07,5.17537e+07,9.41816e+06,1.4203e+08,5.26037e+07
67.7598,162.675,162.52,1.000001,1278,3005,755189.5,140211,58106498.25,55307.75,57794.25,0.000047,768095,0.185663,0.172521,0.17084,87214.5,87129.6,84678.6,1.863819,84680.5,0.971871,15251.9,15250.4,4.994804,4.007224,2.631868,0.402939,0.335978,1.2328e+06,809681,0.071317,0.059465,3.237891,0.037131,996121,0.006572,1.47191e+08,2.65082e+07,0.180094,4.21891e+06,2.34262e+07,2.3803e+07,5.45152e+07,9.81786e+06,1.49559e+08,5.53922e+07
72.451,171.875,171.902,1.000001,1278,3005,723641,133853.25,58515912,55757.25,58147.875,0.000047,735916,0.184972,0.171833,0.170171,91028.1,91005.2,88544.3,1.863819,88546.1,0.972959,15876.9,15875.4,4.994804,3.97134,2.595985,0.415889,0.348927,1.22176e+06,798642,0.073609,0.061757,3.241518,0.035558,997237,0.006293,1.5391e+08,2.75946e+07,0.17929,4.39181e+06,2.44956e+07,2.48862e+07,5.70038e+07,1.02202e+07,1.56365e+08,5.79128e+07
77.215,181.425,181.43,1.000001,1278,3005,693039.625,126991.375,58931820.875,56231.625,58517.375,0.000047,704578,0.183238,0.170107,0.168494,95076.8,95142.3,92671.1,1.863819,92672.9,0.974026,16443.1,16441.6,4.994804,3.934515,2.55916,0.429044,0.362083,1.21043e+06,787313,0.075937,0.064085,3.245072,0.034031,998330,0.006023,1.61084e+08,2.85787e+07,0.177416,4.54844e+06,2.56372e+07,2.60376e+07,5.96606e+07,1.05847e+07,1.63599e+08,6.05922e+07
81.947,190.975,190.894,1.000001,1278,3005,668574,120967,59343651.75,56683.875,58888.875,0.000047,679429,0.180933,0.167812,0.166263,98596,98758.1,96276.3,1.863819,96278.2,0.97487,16847.6,16846.1,4.994804,3.897673,2.522318,0.442071,0.375109,1.1991e+06,775978,0.078243,0.066391,3.247885,0.032809,999196,0.005807,1.6735e+08,2.92818e+07,0.174973,4.66034e+06,2.66346e+07,2.70392e+07,6.19815e+07,1.08451e+07,1.69893e+08,6.29232e+07
86.6735,200.4,200.347,1.000001,1278,3005,649847.625,115672.875,59755555.625,57122.375,59269.125,0.000048,660062,0.178,0.164892,0.163421,101489,101753,99260.4,1.863819,99262.3,0.975504,17064.6,17063.1,4.994804,3.860442,2.485086,0.4551,0.388138,1.18765e+06,764524,0.080549,0.068697,3.249997,0.031874,999845,0.005641,1.72537e+08,2.9659e+07,0.171899,4.72037e+06,2.74601e+07,2.78629e+07,6.39027e+07,1.09848e+07,1.75068e+08,6.48399e+07
91.4104,209.925,209.821,1.000001,1278,3005,634704.375,111283.375,60187004.375,57572.75,59674,0.000048,644386,0.175331,0.162235,0.160833,103958,104316,101812,1.863819,101813,0.975996,17219.5,17218,4.994804,3.821024,2.445669,0.468747,0.401785,1.17552e+06,752398,0.082964,0.071112,3.251634,0.031117,1.00035e+06,0.005507,1.76972e+08,2.99282e+07,0.169113,4.76321e+06,2.81659e+07,2.85658e+07,6.5545e+07,1.10845e+07,1.79484e+08,6.64757e+07
96.1148,219.3125,219.23,1.000001,1278,3005,621451.125,108071.125,60647789.625,58044.625,60104.25,0.000048,630778,0.173901,0.160811,0.159446,106201,106629,104113,1.863819,104115,0.976398,17453.4,17451.9,4.994804,3.778441,2.403086,0.483321,0.41636,1.16242e+06,739297,0.085544,0.073692,3.252976,0.030456,1.00076e+06,0.00539,1.80971e+08,3.03349e+07,0.167622,4.82794e+06,2.88025e+07,2.92043e+07,6.70265e+07,1.12351e+07,1.83496e+08,6.79616e+07
100.773,228.6125,228.545,1.000001,1278,3005,612680.375,106065.625,61168126.125,58561.625,60604.375,0.000048,621794,0.173117,0.16003,0.158685,107735,108211,105679,1.863819,105681,0.976609,17630.8,17629.3,4.994804,3.729738,2.354383,0.49978,0.432819,1.14744e+06,724314,0.088457,0.076605,3.253676,0.030018,1.00098e+06,0.005313,1.83694e+08,3.06431e+07,0.166816,4.877e+06,2.92358e+07,2.96398e+07,6.8035e+07,1.13493e+07,1.86233e+08,6.89751e+07
105.452,238.1125,237.903,1.000001,1278,3005,607024.25,105085,61791139.75,59176.375,61204.75,0.000049,616053,0.173115,0.160028,0.158683,108739,109236,106687,1.863819,106689,0.976664,17800.7,17799.2,4.994804,3.670539,2.295183,0.519486,0.452525,1.12922e+06,706102,0.091944,0.080093,3.253861,0.029736,1.00103e+06,0.005263,1.85446e+08,3.09384e+07,0.166832,4.92399e+06,2.95147e+07,2.99226e+07,6.86838e+07,1.14587e+07,1.88009e+08,6.96331e+07
110.113,247.3625,247.226,1.000001,1278,3005,610054.125,107351.875,62564570.625,59909.25,61973.375,0.000049,619428,0.175971,0.162872,0.161454,108147,108580,106008,1.863819,106009,0.976311,18006.5,18004.9,4.994804,3.595651,2.220296,0.54395,0.476989,1.10618e+06,683063,0.096274,0.084423,3.252684,0.029889,1.00067e+06,0.00529,1.84265e+08,3.12961e+07,0.169843,4.98092e+06,2.93267e+07,2.97466e+07,6.82463e+07,1.15911e+07,1.86904e+08,6.92236e+07
114.792,256.7,256.584,1.000001,1278,3005,622226.625,114850.875,63570648.875,60849.5,62972.125,0.00005,632737,0.18458,0.171443,0.169793,105872,106101,103498,1.863819,103500,0.975463,18514.8,18513.3,4.994804,3.495799,2.120444,0.575773,0.508812,1.07547e+06,652344,0.101907,0.090055,3.249859,0.030501,999803,0.005398,1.79903e+08,3.21797e+07,0.178872,5.12155e+06,2.86324e+07,2.90868e+07,6.66307e+07,1.19184e+07,1.82758e+08,6.76882e+07
119.44,266.0625,265.88,1.000001,1278,3005,645252.25,129560.25,64766450.5,61936.375,64171.125,0.00005,658131,0.20079,0.187576,0.185422,101787,101641,98998.8,1.863819,99000.6,0.974,19393.2,19391.6,4.994804,3.373252,1.997897,0.613597,0.546636,1.03776e+06,614643,0.108601,0.09675,3.244986,0.031659,998304,0.005603,1.72082e+08,3.37063e+07,0.195873,5.36453e+06,2.73877e+07,2.79082e+07,6.37342e+07,1.24838e+07,1.75352e+08,6.49453e+07
124.055,275.2,275.109,1.000001,1278,3005,686563.125,150708.875,66087635.875,63091.875,65527.75,0.000051,702910,0.219512,0.206201,0.203351,95302.5,94718.7,92029.7,1.863819,92031.5,0.971611,19846.2,19844.6,4.994804,3.232426,1.857071,0.655387,0.588426,994440,571319,0.115998,0.104146,3.237025,0.033732,995854,0.00597,1.59969e+08,3.44937e+07,0.215628,5.48984e+06,2.54598e+07,2.60449e+07,5.92477e+07,1.27755e+07,1.63645e+08,6.06094e+07