File: FirefighterJacket/data/DMA/dma2.csv
Time,Sample     ,Program Temperature,Frequency     ,Raw Dynamic,Raw Static,In-Phase     ,Out-Of-Phase,Zero Displacement,Min Displacement,Max Displacement,Spring     ,C*     ,Measured     ,Corrected     ,Corrected     ,Stiffness*,Total     ,Stiffness     ,Inertia     ,Sample     ,Ratio of     ,Total     ,Sample     ,Total Applied,Static Force,Static     ,Static     ,Static     ,Static Stress,Static     ,Static Strain,Static     ,Dynamic Force,Displacement,Dynamic     ,Dynamic     ,Storage Modulus,Loss Modulus,Tan Delta,Loss Viscosity,Storage     ,Complex     ,Shear Storage Modulus,Shear Loss Modulus,Complex     ,Shear Complex
          ,Temperature,Temperature,          ,Force     ,Force     ,Angle     ,Angle     ,               ,               ,               ,Stiffness     ,          ,Tan Delta     ,Total Tan Delta,Total Delta,          ,Stiffness',Less Spring,          ,Stiffness',Sample to Total,Stiffness'',Stiffness'',Static Force,          ,Force Corrected,Displacement,Displacement Co,          ,Stress Correcte,          ,Strain Correcte,          ,Amplitude     ,Stress     ,Strain     ,Modulus     ,          ,          ,               ,Viscosity     ,Viscosity     ,Modulus     ,Modulus     ,Modulus     ,Modulus
0,250.325,250,1.000001,32,2071,623754.75,30306,42157889.25,40197.375,42159.125,0.000044,624491,0.048586,0.03583,0.035815,2685.94,2685.4,353.572,1.863819,355.436,0.132267,96.25993,94.87827,0.125131,0.361869,0,0.101525,0,111327,0,0.017969,0,0.011034,0.031036,3394.49,0.005493,617816,164917,0.266935,26247.3,98328.5,101771,228821,61080.3,639449,236833
2.796043,255.9625,255.592,1.000001,31,2069,594502.5,27239.75,41981255,40063.5,41935.875,0.000045,595126,0.045819,0.033066,0.033054,2730.4,2730.12,396.037,1.863819,397.901,0.145645,90.314,88.931,0.114703,0.364711,0.002842,0.107112,0.005587,112202,874.371,0.018958,0.000989,0.01177,0.02958,3621.02,0.005235,691629,154579,0.2235,24602,110076,112792,256159,57251.6,708692,262479
5.542946,261.425,261.086,1.000001,31,2069,592447.125,27694.125,41947998.625,40033.625,41901.375,0.000045,593094,0.046745,0.033991,0.033978,2739.75,2739.39,404.877,1.863819,406.74,0.148377,93.1559,91.7726,0.114703,0.367213,0.005344,0.108164,0.006639,112971,1644.16,0.019144,0.001175,0.011991,0.029478,3688.95,0.005217,706994,159519,0.225629,25388.2,112521,115350,261850,59081,724766,268432
8.299957,266.85,266.6,1.000001,31,2069,592980.375,28156.375,41912178.125,39997.25,41870.125,0.000045,593648,0.047483,0.034728,0.034714,2737.19,2736.76,401.777,1.863819,403.641,0.147388,95.0836,93.7001,0.114703,0.36991,0.008041,0.109297,0.007772,113801,2473.73,0.019345,0.001376,0.011911,0.029505,3664.35,0.005222,701606,162869,0.232137,25921.4,111664,114633,259854,60321.8,720262,266764
11.05778,272.375,272.116,1.000001,31,2069,598664.375,28612.375,41861258.625,39949.75,41827.625,0.000045,599348,0.047794,0.035038,0.035024,2711.16,2710.7,375.037,1.863819,376.901,0.138946,95.0198,93.6358,0.114703,0.373745,0.011876,0.110907,0.009383,114981,3653.74,0.01963,0.001661,0.011229,0.029788,3454.47,0.005272,655127,162757,0.248436,25903.6,104267,107436,242640,60280.5,675042,250015
13.8094,277.9375,277.619,1.000001,31,2069,607095.875,27939.125,41795357.625,39863.375,41771.25,0.000045,607738,0.046021,0.033267,0.033255,2673.73,2673.42,336.874,1.863819,338.738,0.126618,88.97597,87.5915,0.114703,0.378714,0.016845,0.112992,0.011467,116509,5182.27,0.019999,0.00203,0.010232,0.030207,3147.95,0.005346,588792,152251,0.258582,24231.5,93709.1,96791.3,218071,56389.3,608158,225244
16.5992,283.475,283.198,1.000001,30,2069,596832.375,27176.125,41729707.125,39818.125,41693,0.000045,597451,0.045534,0.032781,0.032769,2632.04,2631.75,294.317,1.863819,296.181,0.112462,86.3077,84.9227,0.114703,0.383668,0.0218,0.115069,0.013544,118034,6706.52,0.020366,0.002397,0.008795,0.029696,2705.82,0.005256,514819,147612,0.286726,23493.2,81936,85237.5,190674,54671.2,535564,198357
19.3536,288.975,288.707,1.000001,30,2069,602574.375,27477.875,41683744.625,39763.125,41650.75,0.000045,603201,0.045601,0.032847,0.032836,2606.95,2606.65,268.583,1.863819,270.447,0.103679,85.6583,84.273,0.114703,0.38714,0.025271,0.116522,0.014997,119102,7774.57,0.020623,0.002654,0.008108,0.029982,2494.5,0.005307,470090,146483,0.311606,23313.4,74817,78365.2,174107,54252.9,492384,182364
22.1039,294.4,294.208,1.000001,30,2069,604534.375,27654.125,41655687.375,39737.875,41622.125,0.000045,605167,0.045745,0.032991,0.032979,2598.48,2598.17,259.712,1.863819,261.575,0.100605,85.7526,84.367,0.114703,0.389261,0.027392,0.11741,0.015885,119754,8426.93,0.02078,0.002811,0.007868,0.030079,2420.54,0.005324,454669,146646,0.322534,23339.4,72362.7,76033.5,168396,54313.4,477733,176938
24.8625,300.175,299.725,1.000001,30,2069,605365.5,27442.75,41636157.25,39708.25,41606.625,0.000045,605987,0.045333,0.032579,0.032568,2594.96,2594.68,255.955,1.863819,257.819,0.099293,84.5692,83.1834,0.114703,0.390737,0.028868,0.118028,0.016503,120208,8881.19,0.02089,0.002921,0.007765,0.030121,2388.99,0.005331,448140,144589,0.322642,23012,71323.6,74944,165978,53551.5,470888,174403
27.62425,305.625,305.249,1.000001,30,2069,606449.625,26939.625,41621750.625,39689.625,41593.25,0.000045,607048,0.044422,0.03167,0.031659,2590.43,2590.22,251.296,1.863819,253.16,0.097666,82.0663,80.6804,0.114703,0.391827,0.029958,0.118483,0.016958,120544,9216.37,0.02097,0.003001,0.007638,0.030174,2349.84,0.005341,440041,140238,0.318694,22319.6,70034.6,73505.1,162978,51940.1,461847,171054
30.3618,310.95,310.724,1.000001,30,2069,607103.875,25987.125,41610042.375,39682.375,41584.125,0.000045,607660,0.042805,0.030054,0.030045,2587.82,2587.74,248.651,1.863819,250.515,0.096739,77.806,76.42,0.114703,0.392712,0.030843,0.118854,0.017329,120816,9488.83,0.021036,0.003067,0.007566,0.030206,2327.52,0.005346,435443,132833,0.305052,21141,69302.9,72455.7,161275,49197.3,455253,168612
33.1165,316.4125,316.233,1.000001,30,2069,608608,25140.25,41599248.75,39667.125,41575.875,0.000045,609127,0.041308,0.028559,0.028551,2581.58,2581.62,242.377,1.863819,244.241,0.09454,73.7583,72.3722,0.114703,0.393529,0.03166,0.119195,0.01767,121067,9740.05,0.021096,0.003127,0.007394,0.030281,2274.61,0.005359,424539,125797,0.296314,20021.2,67567.4,70471.3,157237,46591.5,442784,163994
35.8738,322.0625,321.748,1.000001,30,2069,610688.75,23833.25,41589100,39657.875,41578.25,0.000045,611154,0.039027,0.02628,0.026273,2573.02,2573.21,233.832,1.863819,235.695,0.091529,67.6513,66.2651,0.114703,0.394297,0.032428,0.119516,0.017991,121303,9976.3,0.021153,0.003184,0.007158,0.030383,2202.19,0.005378,409685,115182,0.281147,18331.7,65203.3,67731.2,151735,42659.9,425568,157618
38.6371,327.7375,327.274,1.000001,30,2069,612616.875,22290.625,41579262.875,39643.25,41561.375,0.000045,613022,0.036386,0.023641,0.023636,2565.18,2565.54,226.016,1.863819,227.879,0.088759,60.6765,59.2903,0.114703,0.395041,0.033172,0.119827,0.018302,121532,10205.3,0.021208,0.003239,0.006942,0.030478,2135.53,0.005394,396099,103058,0.260183,16402.2,63041,65139.8,146703,38169.6,409286,151587
41.3798,332.9625,332.76,1.000001,30,2069,614380.125,21112.125,41569870.125,39628.375,41562.5,0.000045,614743,0.034363,0.02162,0.021616,2558,2558.47,218.817,1.863819,220.681,0.086192,55.3362,53.9499,0.114703,0.395752,0.033883,0.120124,0.018599,121751,10424,0.021261,0.003292,0.006741,0.030565,2073.78,0.00541,383587,93775.4,0.24447,14924.8,61049.7,62847.5,142069,34731.6,394883,146253
44.1631,338.475,338.326,1.000001,29,2068,595237.125,19007.875,41493526.625,39579.125,41456.375,0.000045,595541,0.031933,0.019191,0.019189,2552.46,2553.06,212.321,1.863819,214.184,0.083832,49.0167,47.6298,0.109489,0.396321,0.034452,0.122539,0.021014,121926,10599,0.021688,0.003719,0.006338,0.029612,1949.76,0.005241,372294,82789.8,0.222377,13176.4,59252.4,60699.8,137887,30662.9,381388,141255
46.9046,344.05,343.809,1.000001,29,2068,597338.625,17392.875,41485479.125,39574.875,41451.5,0.000045,597592,0.029117,0.016377,0.016375,2543.7,2544.42,203.566,1.863819,205.43,0.080678,41.6871,40.3001,0.109489,0.396931,0.035062,0.122794,0.021269,122114,10786.6,0.021733,0.003764,0.006099,0.029715,1876.41,0.005259,357077,70049.4,0.196175,11148.7,56830.5,57913.7,132251,25944.2,363883,134771
49.6416,349.575,349.283,1.000001,29,2068,599009.75,16397,41478441.5,39558.875,41447,0.000045,599234,0.027374,0.014634,0.014633,2536.73,2537.51,196.557,1.863819,198.421,0.078138,37.1497,35.7626,0.109489,0.397464,0.035595,0.123016,0.021491,122278,10950.8,0.021773,0.003804,0.005907,0.029798,1817.32,0.005274,344895,62162.4,0.180236,9893.44,54891.7,55776.1,127739,23023.1,350452,129797
52.395,355.2125,354.79,1.000001,29,2068,600149.625,15285.625,41471828.625,39554.625,41441.625,0.000045,600344,0.02547,0.012731,0.012731,2532.04,2532.88,191.835,1.863819,193.698,0.076417,32.2602,30.8731,0.109489,0.397966,0.036097,0.123225,0.0217,122432,11105,0.02181,0.003841,0.005777,0.029854,1777.31,0.005284,336685,53663.5,0.159388,8540.8,53585.1,54261.5,124698,19875.4,340935,126272
55.1502,360.7125,360.3,1.000001,29,2068,602004.875,14679.875,41465021.625,39540.375,41440,0.000045,602184,0.024385,0.011647,0.011647,2524.3,2525.17,184.03,1.863819,185.893,0.073562,29.4231,28.0359,0.109489,0.398482,0.036613,0.123441,0.021916,122591,11263.8,0.021848,0.003879,0.005561,0.029946,1710.89,0.0053,323119,48731.9,0.150817,7755.91,51425.9,52007.5,119674,18048.8,326773,121027
57.8906,366.1,365.781,1.000001,29,2068,603311,13873,41458238.75,39535.375,41436.375,0.000045,603470,0.022995,0.010258,0.010257,2518.92,2519.83,178.584,1.863819,180.448,0.071558,25.8578,24.4706,0.109489,0.398996,0.037127,0.123655,0.02213,122749,11422,0.021886,0.003917,0.00541,0.03001,1664.3,0.005312,313654,42534.6,0.13561,6769.58,49919.6,50376.5,116168,15753.6,316525,117232
60.6321,371.575,371.264,1.000001,29,2068,604348.75,13440,41451735,39518.625,41430.625,0.000045,604498,0.022239,0.009502,0.009502,2514.64,2515.56,174.224,1.863819,176.088,0.069948,23.9123,22.5251,0.109489,0.399489,0.03762,0.123861,0.022336,122901,11573.7,0.021922,0.003953,0.005288,0.030062,1626.84,0.005321,306075,39152.9,0.127919,6231.37,48713.3,49110.2,113361,14501.1,308569,114285
63.3712,377.1,376.742,1.000001,29,2068,606139.875,12644.125,41445009.375,39512.5,41427.75,0.000045,606272,0.02086,0.008124,0.008123,2507.28,2508.23,166.796,1.863819,168.66,0.067193,20.3844,18.997,0.109489,0.399999,0.03813,0.124074,0.022549,123058,11730.7,0.02196,0.003991,0.00508,0.03015,1562.76,0.005336,293163,33020.5,0.112635,5255.37,46658.3,46953.4,108579,12229.8,295017,109266
66.1119,382.575,382.224,1.000001,29,2068,608145,12330.75,41437508.5,39511.125,41421.5,0.000045,608270,0.020276,0.00754,0.00754,2499.05,2500,158.456,1.863819,160.32,0.06408,18.8572,17.4698,0.109489,0.400568,0.038699,0.124311,0.022786,123233,11905.7,0.022002,0.004033,0.004844,0.03025,1490.37,0.005354,278667,30365.8,0.108968,4832.87,44351.2,44613.7,103210,11246.6,280316,103821
68.8536,387.85,387.707,1.000001,29,2068,610276,11668.5,41430010,39501.375,41416.125,0.000045,610388,0.01912,0.006384,0.006384,2490.38,2491.34,149.691,1.863819,151.555,0.060787,15.9118,14.5243,0.109489,0.401137,0.039268,0.124548,0.023023,123408,12080.7,0.022044,0.004075,0.004596,0.030355,1413.79,0.005373,263432,25246,0.095835,4018.03,41926.5,42118.6,97567.5,9350.38,264639,98014.5
69.7659,389.7625,389.532,1.000001,29,2068,611013.875,11868.875,41427605.625,39488.375,41415,0.000045,611129,0.019425,0.006689,0.006689,2487.36,2488.31,146.627,1.863819,148.491,0.059631,16.651,15.2635,0.109489,0.40132,0.039451,0.124624,0.023099,123464,12136.8,0.022057,0.004088,0.004508,0.030392,1386.89,0.005379,258106,26531,0.102791,4222.53,41078.8,41295.3,95594.9,9826.29,259466,96098.6
,,,,,,,,,,,,,,,,,,,,,,,,,,,,,,,,,,,,,,,,,,,,,,
69.8957,389.7875,389.741,1.000001,29,2068,609867.875,11468.375,41427377.625,39499.375,41413.75,0.000045,609976,0.018805,0.006069,0.006069,2492.06,2493.03,151.341,1.863819,153.205,0.061407,15.1363,13.7488,0.109489,0.401337,0.039468,0.124631,0.023107,123469,12142.1,0.022059,0.00409,0.004642,0.030335,1428.21,0.005369,266300,23898.1,0.089741,3803.5,42382.9,42553.2,98629.5,8851.15,267370,99025.9
76.7997,376.3,375.932,1.000001,29,2068,594716.5,14388,41424765.75,39493.75,41387.875,0.000045,594891,0.024193,0.011455,0.011455,2555.25,2556.15,214.427,1.863819,216.291,0.084554,29.2936,27.9061,0.109489,0.401535,0.039666,0.124714,0.023189,123530,12203.1,0.022073,0.004104,0.006392,0.029583,1966.55,0.005236,375955,48506.2,0.129021,7719.99,59835,60331,139243,17965.2,379071,140397
83.7581,362.2,362.016,1.000001,31,2069,596487.375,23643.125,41498606.125,39581.125,41459,0.000045,596956,0.039637,0.026889,0.026883,2722.03,2722.25,381.588,1.863819,383.452,0.140762,73.2323,71.8454,0.114703,0.40115,0.039281,0.122378,0.020854,123412,12084.6,0.02166,0.003691,0.011375,0.029676,3499.61,0.005252,666514,124881,0.187365,19875.5,106079,107925,246857,46252.3,678112,251153
90.782,348.2125,347.968,1.000001,34,2072,592743.75,28601,41700838.75,39780.625,41647.25,0.000045,593433,0.048252,0.035496,0.035481,3003.17,3002.75,664.917,1.863819,666.78,0.221919,106.637,105.252,0.130345,0.40149,0.039621,0.115982,0.014457,123516,12189.2,0.020528,0.002559,0.01967,0.029492,6051.26,0.00522,1.15899e+06,182949,0.157851,29117.1,184459,186743,429257,67758.7,1.17334e+06,434572
97.815,334.125,333.902,1.000001,37,2074,596303.25,23175.5,41834177.75,39898,41777.75,0.000045,596753,0.038865,0.026118,0.026112,3249.97,3250.59,914.564,1.863819,916.428,0.281765,84.9443,83.56011,0.140772,0.401855,0.039987,0.111764,0.010239,123629,12301.6,0.019781,0.001812,0.027178,0.029664,8361.07,0.00525,1.59293e+06,145244,0.09118,23116.2,253522,254574,589974,53794,1.59954e+06,592421
104.761,320.225,320.01,1.000001,38,2075,592854.625,18247.375,41903850.875,39989.125,41839.375,0.000045,593135,0.030779,0.018038,0.018036,3358.17,3359.46,1024.37,1.863819,1026.23,0.305305,60.6296,59.246,0.145986,0.40182,0.039951,0.10956,0.008035,123618,12290.6,0.019391,0.001422,0.030244,0.029489,9304.46,0.005219,1.78379e+06,102981,0.057732,16389.9,283899,284371,660663,38141.1,1.78676e+06,661763
111.715,306.3625,306.101,1.000001,39,2075,600591.25,16183.5,41920785.5,39991.25,41868.25,0.000045,600809,0.026946,0.014207,0.014206,3402.52,3404.07,1069.2,1.863819,1071.06,0.314469,48.3879,47.0044,0.145986,0.400544,0.038675,0.109025,0.0075,123225,11898.3,0.019296,0.001327,0.031972,0.029872,9835.92,0.005287,1.86171e+06,81702.8,0.043886,13003.4,296300,296585,689522,30260.3,1.8635e+06,690185
118.623,292.6625,292.286,1.000001,39,2075,597598.875,14701.875,41942111.625,40010,41887.125,0.000045,597780,0.024602,0.011864,0.011863,3419.77,3421.43,1086.84,1.863819,1088.71,0.318028,40.6132,39.2299,0.145986,0.398939,0.03707,0.10835,0.006825,122732,11404.4,0.019177,0.001208,0.032334,0.029722,9947.25,0.005261,1.89238e+06,68189.2,0.036034,10852.6,301182,301377,700882,25255.3,1.89361e+06,701337
125.541,278.6875,278.449,1.000001,39,2075,595238.875,14124.375,41971985.875,40049.5,41909.25,0.000045,595406,0.023729,0.010991,0.010991,3433.4,3435.113,1100.91,1.863819,1102.78,0.320856,37.7777,36.3946,0.145986,0.396691,0.034822,0.107405,0.00588,122040,10712.9,0.01901,0.001041,0.032621,0.029605,10035.7,0.00524,1.91684e+06,63260.9,0.033003,10068.3,305074,305240,709940,23430,1.91788e+06,710326
132.46,264.8375,264.612,1.000001,39,2075,594313.625,13702.875,42004559.625,40088.375,41946.625,0.000045,594472,0.023057,0.010319,0.010319,3438.8,3440.54,1106.76,1.863819,1108.63,0.32205,35.5241,34.1413,0.145986,0.394241,0.032372,0.106375,0.00485,121286,9959.12,0.018827,0.000858,0.032742,0.029558,10073.1,0.005232,1.92701e+06,59344.3,0.030796,9444.92,306693,306838,713708,21979.4,1.92792e+06,714046
139.374,251.05,250.783,1.000001,39,2075,593827.75,13520.25,42038946.25,40124.75,41972.75,0.000045,593982,0.022768,0.010031,0.01003,3441.63,3443.39,1110.06,1.863819,1111.92,0.32274,34.5594,33.1769,0.145986,0.391656,0.029787,0.105287,0.003762,120491,9163.83,0.018635,0.000666,0.032813,0.029534,10094.6,0.005227,1.93273e+06,57667.8,0.029837,9178.12,307604,307741,715828,21358.5,1.9336e+06,716146
146.311,237.0875,236.909,1.000001,39,2075,593870.375,13490.625,42077695.625,40157.875,42010,0.000045,594024,0.022716,0.009979,0.009979,3441.39,3443.15,1110.31,1.863819,1112.18,0.322836,34.3796,32.9973,0.145986,0.388744,0.026876,0.104061,0.002537,119595,8268.12,0.018418,0.000449,0.032822,0.029536,10097.6,0.005228,1.93318e+06,57355.8,0.029669,9128.45,307675,307810,715992,21242.9,1.93403e+06,716307
153.245,223.2125,223.043,1.000001,39,2075,592834.375,13262.625,42115243.625,40194.125,42048.125,0.000044,592983,0.022372,0.009635,0.009634,3447.43,3449.21,1116.85,1.863819,1118.71,0.324163,33.2503,31.86835,0.145986,0.385925,0.024056,0.102874,0.001349,118728,7400.65,0.018208,0.000239,0.032957,0.029484,10139.1,0.005218,1.94454e+06,55393.4,0.028487,8816.12,309483,309608,720199,20516.1,1.94533e+06,720492
160.174,209.375,209.185,1.000001,39,2075,591298,13660,42152849.5,40235.625,42084,0.000044,591456,0.023102,0.010364,0.010364,3456.33,3458.09,1126.21,1.863819,1128.07,0.326036,35.86138,34.4797,0.145986,0.383102,0.021233,0.101684,0.000159,117859,6532.31,0.017997,0.000028,0.033148,0.029408,10197.7,0.005205,1.96081e+06,59932.4,0.030565,9538.53,312072,312217,726224,22197.2,1.96172e+06,726563
[...]
446.267,320.3,319.95,1.000001,35,2072,596710,12737,41707690,39768.875,41689.5,0.000045,596846,0.021345,0.008609,0.008609,3073.82,3075.25,737.513,1.863819,739.377,0.240283,26.4875,25.1023,0.130345,0.400973,0.039104,0.115765,0.01424,123357,12030,0.020489,0.00252,0.021924,0.029679,6744.71,0.005253,1.28518e+06,43632.7,0.033951,6944.35,204543,204660,475993,16160.3,1.28592e+06,476267
453.209,306.3375,306.065,1.000001,35,2072,592936.125,11842.375,41719280.375,39771.375,41690.125,0.000045,593054,0.019972,0.007236,0.007236,3093.47,3094.95,757.376,1.863819,759.24,0.245168,22.4075,21.0224,0.130345,0.400097,0.038228,0.115398,0.013873,123088,11760.7,0.020424,0.002455,0.022369,0.02949,6881.83,0.00522,1.31971e+06,36541,0.027689,5815.68,210038,210118,488780,13533.7,1.32021e+06,488968
460.16,292.625,292.163,1.000001,35,2072,590187.875,12276.375,41737465.625,39808.375,41707.625,0.000045,590316,0.020801,0.008064,0.008064,3107.83,3109.3,771.972,1.863819,773.836,0.248729,25.0874,23.7025,0.130345,0.398724,0.036855,0.114823,0.013298,122665,11338.3,0.020323,0.002354,0.022694,0.029354,6981.78,0.005195,1.34508e+06,41199.5,0.03063,6557.1,214075,214176,498176,15259.1,1.34571e+06,498410
467.117,278.6,278.249,1.000001,35,2072,587908.125,11396.625,41764451.125,39833.25,41728.25,0.000045,588019,0.019385,0.006649,0.006649,3119.97,3121.49,784.524,1.863819,786.387,0.251777,20.7658,19.38112,0.130345,0.396687,0.034818,0.11397,0.012445,122039,10711.6,0.020172,0.002203,0.022972,0.02924,7067.35,0.005175,1.36689e+06,33688.1,0.024646,5361.63,217548,217614,506257,12477.1,1.36731e+06,506411
474.091,264.6,264.301,1.000001,36,2074,599697.75,12082,41901076,39944.5,41890,0.000045,599819,0.020147,0.007411,0.007411,3145.97,3147.5,812.369,1.863819,814.232,0.258539,23.3371,21.9534,0.140772,0.396815,0.034946,0.109648,0.008123,122078,10750.9,0.019407,0.001438,0.024263,0.029826,7464.5,0.005279,1.41529e+06,38159.4,0.026962,6073.25,225251,225333,524183,14133.1,1.41581e+06,524374
481.017,250.7125,250.449,1.000001,36,2074,597261.875,11886.875,41936478.125,39986.75,41915.75,0.000045,597380,0.019902,0.007166,0.007166,3158.82,3160.37,825.699,1.863819,827.563,0.261702,22.6596,21.2762,0.140772,0.394149,0.03228,0.108528,0.007003,121258,9930.89,0.019209,0.00124,0.02456,0.029705,7555.85,0.005258,1.43847e+06,36982.2,0.025709,5885.89,228939,229014,532765,13697.1,1.43894e+06,532941
487.958,236.8625,236.566,1.000001,36,2074,593955.375,12411.375,41970939.625,40023,41948.5,0.000045,594085,0.020896,0.00816,0.00816,3176.34,3177.88,843.664,1.863819,845.528,0.265911,25.9441,24.561,0.140772,0.391556,0.029687,0.107438,0.005913,120460,9133.07,0.019016,0.001047,0.024955,0.029541,7677.35,0.005228,1.46969e+06,42691.8,0.029048,6794.6,233909,234007,544330,15811.8,1.47031e+06,544560
494.92,222.9125,222.644,1.000001,36,2074,592745.125,12406.125,42003597.875,40055,41984.625,0.000045,592875,0.02093,0.008194,0.008193,3182.82,3184.37,850.577,1.863819,852.441,0.267539,26.10474,24.7219,0.140772,0.3891,0.027231,0.106405,0.00488,119705,8377.38,0.018833,0.000864,0.025108,0.029481,7724.35,0.005218,1.48171e+06,42971.5,0.029001,6839.12,235821,235920,548781,15915.4,1.48233e+06,549011
501.849,209.0375,208.784,1.000001,36,2074,589891.25,12073.75,42036749,40079.875,42006.875,0.000045,590015,0.020468,0.007731,0.007731,3198.25,3199.82,866.4613,1.863819,868.325,0.271209,24.7523,23.3698,0.140772,0.386607,0.024738,0.105357,0.003832,118938,7610.65,0.018647,0.000678,0.025452,0.029339,7830.3,0.005193,1.50932e+06,40621.2,0.026914,6465.06,240215,240302,559007,15044.9,1.50986e+06,559209
508.795,195.125,194.893,1.000001,36,2074,588257.125,12114.375,42065186.125,40123,42034.625,0.000045,588382,0.020594,0.007857,0.007857,3207.13,3208.71,875.708,1.863819,877.572,0.273338,25.2252,23.8428,0.140772,0.38447,0.022601,0.104457,0.002932,118280,6953.24,0.018488,0.000519,0.025652,0.029257,7891.79,0.005178,1.52539e+06,41443.5,0.027169,6595.93,242773,242863,564959,15349.4,1.52595e+06,565168
515.821,181.1,180.84,1.000001,37,2074,602601.375,11899.375,42096528.625,40130.375,42075.375,0.000045,602719,0.019747,0.007011,0.007011,3217.81,3219.42,886.818,1.863819,888.682,0.275878,22.5821,21.2,0.140772,0.382116,0.020247,0.103466,0.001941,117556,6228.97,0.018313,0.000344,0.02661,0.02997,8186.38,0.005304,1.5447e+06,36849.7,0.023856,5864.81,245847,245917,572112,13648,1.54514e+06,572274
522.774,167.2,166.936,1.000001,37,2074,600836.375,11692.375,42129120.375,40172,42120.125,0.000044,600950,0.01946,0.006724,0.006724,3227.28,3228.9,896.717,1.863819,898.581,0.278132,21.7234,20.3415,0.140772,0.379669,0.0178,0.102435,0.00091,116803,5476.18,0.01813,0.000161,0.026827,0.029882,8253.27,0.005289,1.56191e+06,35357.5,0.022637,5627.32,248585,248649,578485,13095.4,1.56231e+06,578633
529.728,153.3375,153.027,1.000001,37,2074,599026.5,12628.5,42158512.5,40199,42140,0.000044,599160,0.021082,0.008345,0.008345,3236.92,3238.52,906.702,1.863819,908.566,0.280388,27.0404,25.6588,0.140772,0.377463,0.015595,0.101505,0.00002,116125,4797.6,0.017966,0.000003,0.027045,0.029793,8320.21,0.005273,1.57926e+06,44599.9,0.028241,7098.29,251347,251448,584912,16518.5,1.57989e+06,585146
536.699,139.3625,139.085,1.000001,37,2074,597270.25,12589,42186173.5,40226.125,42171,0.000044,597403,0.021078,0.008341,0.008341,3246.44,3248.05,916.576,1.863819,918.44,0.282605,27.1066,25.7251,0.140772,0.375388,0.01352,0.10063,0.000895,115486,4159.23,0.017811,0.000158,0.027259,0.029706,8385.98,0.005258,1.59643e+06,44715.2,0.02801,7116.65,254079,254179,591269,16561.2,1.59705e+06,591501
543.644,125.5,125.195,1.000001,37,2074,596029.375,12362.375,42216080.875,40268.875,42188.125,0.000044,596158,0.020741,0.008005,0.008005,3253.22,3254.84,923.745,1.863819,925.609,0.284216,26.0684,24.6872,0.140772,0.373146,0.011277,0.099684,0.001841,114796,3469.31,0.017643,0.000326,0.027414,0.029644,8433.8,0.005247,1.60889e+06,42911.1,0.026671,6829.51,256062,256153,595884,15893,1.60946e+06,596096
550.583,111.6125,111.316,1.000001,37,2074,594247.75,12293.25,42243086.25,40295.375,42217.625,0.000044,594375,0.020687,0.007951,0.007951,3262.98,3264.61,933.847,1.863819,935.711,0.286459,25.96991,24.5889,0.140772,0.371122,0.009253,0.09883,0.002695,114174,2846.58,0.017492,0.000477,0.02763,0.029555,8500.35,0.005231,1.62645e+06,42740.2,0.026278,6802.32,258857,258946,602388,15829.7,1.62701e+06,602596
557.511,97.7125,97.4604,1.000001,37,2074,592390.875,12077.625,42271477.375,40320.625,42243.625,0.000044,592514,0.020388,0.007652,0.007652,3273.23,3274.88,944.462,1.863819,946.326,0.288801,25.0718,23.691,0.140772,0.368994,0.007126,0.097932,0.003593,113519,2192.15,0.017333,0.000636,0.027856,0.029462,8569.85,0.005215,1.6449e+06,41179.5,0.025035,6553.91,261794,261876,609222,15251.7,1.64541e+06,609413
564.448,84.3125,83.5873,1.000001,37,2074,591779.875,12488.875,42297496.125,40355.625,42256.5,0.000044,591912,0.021104,0.008367,0.008367,3276.56,3278.19,948.096,1.863819,949.959,0.289617,27.4447,26.0641,0.140772,0.367046,0.005177,0.097109,0.004416,112920,1592.62,0.017187,0.000782,0.027935,0.029432,8594.05,0.005209,1.65121e+06,45304.4,0.027437,7210.42,262799,262898,611561,16779.4,1.65184e+06,611791
571.398,73.7,69.6877,1.000001,37,2074,590517.125,12601.875,42319468.375,40381.75,42279,0.000044,590652,0.02134,0.008604,0.008604,3283.55,3285.19,955.353,1.863819,957.217,0.291209,28.2803,26.8998,0.140772,0.365401,0.003532,0.096414,0.005111,112414,1086.5,0.017064,0.000905,0.028089,0.02937,8641.29,0.005198,1.66383e+06,46757.1,0.028102,7441.62,264806,264911,616233,17317.4,1.66449e+06,616476
578.318,65.2,55.8467,1.000001,37,2074,590017.5,12500.25,42336813.25,40389.125,42300.375,0.000044,590150,0.021186,0.00845,0.00845,3286.34,3287.98,958.361,1.863819,960.225,0.291875,27.7974,26.4171,0.140772,0.364102,0.002233,0.095865,0.005659,112014,687.079,0.016967,0.001002,0.028153,0.029345,8661.08,0.005194,1.66906e+06,45918,0.027511,7308.07,265639,265739,618170,17006.7,1.66969e+06,618404
585.212,58.4,42.0593,1.000001,37,2074,589058.75,12284.25,42351323,40398.25,42305.125,0.000044,589187,0.020854,0.008118,0.008117,3291.71,3293.37,963.923,1.863819,965.787,0.293086,26.7487,25.3685,0.140772,0.363016,0.001147,0.095406,0.006118,111680,353.017,0.016886,0.001083,0.02827,0.029297,8697,0.005185,1.67872e+06,44095.3,0.026267,7017.99,267177,267269,621750,16331.6,1.6793e+06,621964
586.394,57.3,39.6954,1.000001,37,2074,589205.5,12327.25,42354047.75,40409.125,42305.75,0.000044,589334,0.020922,0.008185,0.008185,3290.89,3292.54,963.128,1.863819,964.992,0.292918,26.9652,25.585,0.140772,0.362812,0.000944,0.09532,0.006205,111617,290.292,0.016871,0.001098,0.028253,0.029304,8692.03,0.005187,1.67734e+06,44471.7,0.026513,7077.89,266957,267051,621238,16471,1.67793e+06,621457