File: FirefighterJacket/data/DMA/Nomex 1 Temperature Scan 2.txt
Filename:	P:\+Courses\MatSci\Spring2016\Emily_Adam\DMA\Nomex 1 Temperature Scan 2.dm8d
Operator ID:	Adam
Sample ID:	Nomex #1
Comment: 	Temperature Scan at .030 mm
Serial Number:	3066274
Data Collected:	2/23/2016 4:20:30 AM
Validation
Validated:	No
By:
Date:
Calibration Information
Filename:	C:\Program Files (x86)\PerkinElmer\Pyris\Calibrations\2_16_16 Tension.dm8c
Date/Time:
Initial Conditions
Temperature:
Measuring System:	Tension - Rectangle
Clamp Mass	9.343 g
Length:	5.650 mm
Width:	5.910 mm
Thickness:	0.550 mm
End Condition:	Go To Load
Total Points in Run:	4474
Method Steps:
Pre-Run Actions
Start the Run
	Action occurs Immediately
Switch the Gas to Nitrogen at 20.0 ml/min
	Action occurs Immediately
1)	Heat from 250.00°C to 390.00°C at 2.00°C/min

2)	Cool from 390.00°C to 40.00°C at 2.00°C/min

3)	Heat from 40.00°C to 390.00°C at 2.00°C/min

4)	Cool from 390.00°C to 40.00°C at 2.00°C/min

1) DMA8000 Temperature Scan
	Time     	Sample     	Program     	Frequency     	Raw Dynamic	Raw Static	In-Phase     	Out-Of-Phase	Zero Displacement	Min Displacement	Max Displacement	Spring     	C*     	Measured     	Corrected     	Corrected     	Stiffness*	Total     	Stiffness     	Inertia     	Sample     	Ratio of     	Total     	Sample     	Total Applied	Static Force	Static     	Static     	Static     	Static Stress	Static     	Static Strain	Static     	Dynamic Force	Displacement	Dynamic     	Dynamic     	Storage     	Loss Modulus	Tan Delta     	Loss Viscosity	Storage     	Complex     	Shear Storage	Shear Loss	Complex     	Shear Complex
	          	Temperature	Temperature	          	Force     	Force     	Angle     	Angle     	               	               	               	Stiffness     	          	Tan Delta     	Total Tan Delta	Total Delta	          	Stiffness'	Less Spring	          	Stiffness'	Sample to Total	Stiffness''	Stiffness''	Static Force	          	Force Corrected	Displacement	Displacement Co	          	Stress Correcte	          	Strain Correcte	          	Amplitude     	Stress     	Strain     	Modulus     	          	          	               	Viscosity     	Viscosity     	Modulus     	Modulus     	Modulus     	Modulus
	0.000000	250.325	250	1.000001	32	2071	623755	30306	4.21579e+07	40197.4	42159.1	0.000044	624491	0.048586	0.035830	0.035815	2685.94	2685.4	353.572	1.863819	355.436	0.132267	96.2599	94.8783	0.125131	0.361869	0.000000	0.101525	0.000000	111327	0.000000	0.017969	0.000000	0.011034	0.031036	3394.49	0.005493	617816	164917	0.266935	26247.3	98328.5	101771	228821	61080.3	639449	236833
	2.796043	255.963	255.592	1.000001	31	2069	594502	27239.8	4.19813e+07	40063.5	41935.9	0.000045	595126	0.045819	0.033066	0.033054	2730.4	2730.12	396.037	1.863819	397.901	0.145645	90.314	88.931	0.114703	0.364711	0.002842	0.107112	0.005587	112202	874.371	0.018958	0.000989	0.011770	0.029580	3621.02	0.005235	691629	154579	0.223500	24602	110076	112792	256159	57251.6	708692	262479
	5.542946	261.425	261.086	1.000001	31	2069	592447	27694.1	4.1948e+07	40033.6	41901.4	0.000045	593094	0.046745	0.033991	0.033978	2739.75	2739.39	404.877	1.863819	406.74	0.148377	93.1559	91.7726	0.114703	0.367213	0.005344	0.108164	0.006639	112971	1644.16	0.019144	0.001175	0.011991	0.029478	3688.95	0.005217	706994	159519	0.225629	25388.2	112521	115350	261850	59081	724766	268432
	8.299957	266.85	266.6	1.000001	31	2069	592980	28156.4	4.19122e+07	39997.2	41870.1	0.000045	593648	0.047483	0.034728	0.034714	2737.19	2736.76	401.777	1.863819	403.641	0.147388	95.0836	93.7001	0.114703	0.369910	0.008041	0.109297	0.007772	113801	2473.73	0.019345	0.001376	0.011911	0.029505	3664.35	0.005222	701606	162869	0.232137	25921.4	111664	114633	259854	60321.8	720262	266764
	11.0578	272.375	272.116	1.000001	31	2069	598664	28612.4	4.18613e+07	39949.8	41827.6	0.000045	599348	0.047794	0.035038	0.035024	2711.16	2710.7	375.037	1.863819	376.901	0.138946	95.0198	93.6358	0.114703	0.373745	0.011876	0.110907	0.009383	114981	3653.74	0.019630	0.001661	0.011229	0.029788	3454.47	0.005272	655127	162757	0.248436	25903.6	104267	107436	242640	60280.5	675042	250015
	13.8094	277.938	277.619	1.000001	31	2069	607096	27939.1	4.17954e+07	39863.4	41771.2	0.000045	607738	0.046021	0.033267	0.033255	2673.73	2673.42	336.874	1.863819	338.738	0.126618	88.976	87.5915	0.114703	0.378714	0.016845	0.112992	0.011467	116509	5182.27	0.019999	0.002030	0.010232	0.030207	3147.95	0.005346	588792	152251	0.258582	24231.5	93709.1	96791.3	218071	56389.3	608158	225244
	16.5992	283.475	283.198	1.000001	30	2069	596832	27176.1	4.17297e+07	39818.1	41693	0.000045	597451	0.045534	0.032781	0.032769	2632.04	2631.75	294.317	1.863819	296.181	0.112462	86.3077	84.9227	0.114703	0.383668	0.021800	0.115069	0.013544	118034	6706.52	0.020366	0.002397	0.008795	0.029696	2705.82	0.005256	514819	147612	0.286726	23493.2	81936	85237.5	190674	54671.2	535564	198357
	19.3536	288.975	288.707	1.000001	30	2069	602574	27477.9	4.16837e+07	39763.1	41650.8	0.000045	603201	0.045601	0.032847	0.032836	2606.95	2606.65	268.583	1.863819	270.447	0.103679	85.6583	84.273	0.114703	0.387140	0.025271	0.116522	0.014997	119102	7774.57	0.020623	0.002654	0.008108	0.029982	2494.5	0.005307	470090	146483	0.311606	23313.4	74817	78365.2	174107	54252.9	492384	182364
	22.1039	294.4	294.208	1.000001	30	2069	604534	27654.1	4.16557e+07	39737.9	41622.1	0.000045	605167	0.045745	0.032991	0.032979	2598.48	2598.17	259.712	1.863819	261.575	0.100605	85.7526	84.367	0.114703	0.389261	0.027392	0.117410	0.015885	119754	8426.93	0.020780	0.002811	0.007868	0.030079	2420.54	0.005324	454669	146646	0.322534	23339.4	72362.7	76033.5	168396	54313.4	477733	176938
	24.8625	300.175	299.725	1.000001	30	2069	605366	27442.8	4.16362e+07	39708.2	41606.6	0.000045	605987	0.045333	0.032579	0.032568	2594.96	2594.68	255.955	1.863819	257.819	0.099293	84.5692	83.1834	0.114703	0.390737	0.028868	0.118028	0.016503	120208	8881.19	0.020890	0.002921	0.007765	0.030121	2388.99	0.005331	448140	144589	0.322642	23012	71323.6	74944	165978	53551.5	470888	174403
	27.6242	305.625	305.249	1.000001	30	2069	606450	26939.6	4.16218e+07	39689.6	41593.2	0.000045	607048	0.044422	0.031670	0.031659	2590.43	2590.22	251.296	1.863819	253.16	0.097666	82.0663	80.6804	0.114703	0.391827	0.029958	0.118483	0.016958	120544	9216.37	0.020970	0.003001	0.007638	0.030174	2349.84	0.005341	440041	140238	0.318694	22319.6	70034.6	73505.1	162978	51940.1	461847	171054
	30.3618	310.95	310.724	1.000001	30	2069	607104	25987.1	4.161e+07	39682.4	41584.1	0.000045	607660	0.042805	0.030054	0.030045	2587.82	2587.74	248.651	1.863819	250.515	0.096739	77.806	76.42	0.114703	0.392712	0.030843	0.118854	0.017329	120816	9488.83	0.021036	0.003067	0.007566	0.030206	2327.52	0.005346	435443	132833	0.305052	21141	69302.9	72455.7	161275	49197.3	455253	168612
	33.1165	316.413	316.233	1.000001	30	2069	608608	25140.2	4.15992e+07	39667.1	41575.9	0.000045	609127	0.041308	0.028559	0.028551	2581.58	2581.62	242.377	1.863819	244.241	0.094540	73.7583	72.3722	0.114703	0.393529	0.031660	0.119195	0.017670	121067	9740.05	0.021096	0.003127	0.007394	0.030281	2274.61	0.005359	424539	125797	0.296314	20021.2	67567.4	70471.3	157237	46591.5	442784	163994
	35.8738	322.062	321.748	1.000001	30	2069	610689	23833.2	4.15891e+07	39657.9	41578.2	0.000045	611154	0.039027	0.026280	0.026273	2573.02	2573.21	233.832	1.863819	235.695	0.091529	67.6513	66.2651	0.114703	0.394297	0.032428	0.119516	0.017991	121303	9976.3	0.021153	0.003184	0.007158	0.030383	2202.19	0.005378	409685	115182	0.281147	18331.7	65203.3	67731.2	151735	42659.9	425568	157618
	38.6371	327.738	327.274	1.000001	30	2069	612617	22290.6	4.15793e+07	39643.2	41561.4	0.000045	613022	0.036386	0.023641	0.023636	2565.18	2565.54	226.016	1.863819	227.879	0.088759	60.6765	59.2903	0.114703	0.395041	0.033172	0.119827	0.018302	121532	10205.3	0.021208	0.003239	0.006942	0.030478	2135.53	0.005394	396099	103058	0.260183	16402.2	63041	65139.8	146703	38169.6	409286	151587
	41.3798	332.962	332.76	1.000001	30	2069	614380	21112.1	4.15699e+07	39628.4	41562.5	0.000045	614743	0.034363	0.021620	0.021616	2558	2558.47	218.817	1.863819	220.681	0.086192	55.3362	53.9499	0.114703	0.395752	0.033883	0.120124	0.018599	121751	10424	0.021261	0.003292	0.006741	0.030565	2073.78	0.005410	383587	93775.4	0.244470	14924.8	61049.7	62847.5	142069	34731.6	394883	146253
	44.1631	338.475	338.326	1.000001	29	2068	595237	19007.9	4.14935e+07	39579.1	41456.4	0.000045	595541	0.031933	0.019191	0.019189	2552.46	2553.06	212.321	1.863819	214.184	0.083832	49.0167	47.6298	0.109489	0.396321	0.034452	0.122539	0.021014	121926	10599	0.021688	0.003719	0.006338	0.029612	1949.76	0.005241	372294	82789.8	0.222377	13176.4	59252.4	60699.8	137887	30662.9	381388	141255
	46.9046	344.05	343.809	1.000001	29	2068	597339	17392.9	4.14855e+07	39574.9	41451.5	0.000045	597592	0.029117	0.016377	0.016375	2543.7	2544.42	203.566	1.863819	205.43	0.080678	41.6871	40.3001	0.109489	0.396931	0.035062	0.122794	0.021269	122114	10786.6	0.021733	0.003764	0.006099	0.029715	1876.41	0.005259	357077	70049.4	0.196175	11148.7	56830.5	57913.7	132251	25944.2	363883	134771
	49.6416	349.575	349.283	1.000001	29	2068	599010	16397	4.14784e+07	39558.9	41447	0.000045	599234	0.027374	0.014634	0.014633	2536.73	2537.51	196.557	1.863819	198.421	0.078138	37.1497	35.7626	0.109489	0.397464	0.035595	0.123016	0.021491	122278	10950.8	0.021773	0.003804	0.005907	0.029798	1817.32	0.005274	344895	62162.4	0.180236	9893.44	54891.7	55776.1	127739	23023.1	350452	129797
	52.395	355.212	354.79	1.000001	29	2068	600150	15285.6	4.14718e+07	39554.6	41441.6	0.000045	600344	0.025470	0.012731	0.012731	2532.04	2532.88	191.835	1.863819	193.698	0.076417	32.2602	30.8731	0.109489	0.397966	0.036097	0.123225	0.021700	122432	11105	0.021810	0.003841	0.005777	0.029854	1777.31	0.005284	336685	53663.5	0.159388	8540.8	53585.1	54261.5	124698	19875.4	340935	126272
	55.1502	360.712	360.3	1.000001	29	2068	602005	14679.9	4.1465e+07	39540.4	41440	0.000045	602184	0.024385	0.011647	0.011647	2524.3	2525.17	184.03	1.863819	185.893	0.073562	29.4231	28.0359	0.109489	0.398482	0.036613	0.123441	0.021916	122591	11263.8	0.021848	0.003879	0.005561	0.029946	1710.89	0.005300	323119	48731.9	0.150817	7755.91	51425.9	52007.5	119674	18048.8	326773	121027
	57.8906	366.1	365.781	1.000001	29	2068	603311	13873	4.14582e+07	39535.4	41436.4	0.000045	603470	0.022995	0.010258	0.010257	2518.92	2519.83	178.584	1.863819	180.448	0.071558	25.8578	24.4706	0.109489	0.398996	0.037127	0.123655	0.022130	122749	11422	0.021886	0.003917	0.005410	0.030010	1664.3	0.005312	313654	42534.6	0.135610	6769.58	49919.6	50376.5	116168	15753.6	316525	117232
	60.6321	371.575	371.264	1.000001	29	2068	604349	13440	4.14517e+07	39518.6	41430.6	0.000045	604498	0.022239	0.009502	0.009502	2514.64	2515.56	174.224	1.863819	176.088	0.069948	23.9123	22.5251	0.109489	0.399489	0.037620	0.123861	0.022336	122901	11573.7	0.021922	0.003953	0.005288	0.030062	1626.84	0.005321	306075	39152.9	0.127919	6231.37	48713.3	49110.2	113361	14501.1	308569	114285
	63.3712	377.1	376.742	1.000001	29	2068	606140	12644.1	4.1445e+07	39512.5	41427.8	0.000045	606272	0.020860	0.008124	0.008123	2507.28	2508.23	166.796	1.863819	168.66	0.067193	20.3844	18.997	0.109489	0.399999	0.038130	0.124074	0.022549	123058	11730.7	0.021960	0.003991	0.005080	0.030150	1562.76	0.005336	293163	33020.5	0.112635	5255.37	46658.3	46953.4	108579	12229.8	295017	109266
	66.1119	382.575	382.224	1.000001	29	2068	608145	12330.8	4.14375e+07	39511.1	41421.5	0.000045	608270	0.020276	0.007540	0.007540	2499.05	2500	158.456	1.863819	160.32	0.064080	18.8572	17.4698	0.109489	0.400568	0.038699	0.124311	0.022786	123233	11905.7	0.022002	0.004033	0.004844	0.030250	1490.37	0.005354	278667	30365.8	0.108968	4832.87	44351.2	44613.7	103210	11246.6	280316	103821
	68.8536	387.85	387.707	1.000001	29	2068	610276	11668.5	4.143e+07	39501.4	41416.1	0.000045	610388	0.019120	0.006384	0.006384	2490.38	2491.34	149.691	1.863819	151.555	0.060787	15.9118	14.5243	0.109489	0.401137	0.039268	0.124548	0.023023	123408	12080.7	0.022044	0.004075	0.004596	0.030355	1413.79	0.005373	263432	25246	0.095835	4018.03	41926.5	42118.6	97567.5	9350.38	264639	98014.5
	69.7659	389.762	389.532	1.000001	29	2068	611014	11868.9	4.14276e+07	39488.4	41415	0.000045	611129	0.019425	0.006689	0.006689	2487.36	2488.31	146.627	1.863819	148.491	0.059631	16.651	15.2635	0.109489	0.401320	0.039451	0.124624	0.023099	123464	12136.8	0.022057	0.004088	0.004508	0.030392	1386.89	0.005379	258106	26531	0.102791	4222.53	41078.8	41295.3	95594.9	9826.29	259466	96098.6
2) DMA8000 Temperature Scan
	69.8957	389.788	389.741	1.000001	29	2068	609868	11468.4	4.14274e+07	39499.4	41413.8	0.000045	609976	0.018805	0.006069	0.006069	2492.06	2493.03	151.341	1.863819	153.205	0.061407	15.1363	13.7488	0.109489	0.401337	0.039468	0.124631	0.023107	123469	12142.1	0.022059	0.004090	0.004642	0.030335	1428.21	0.005369	266300	23898.1	0.089741	3803.5	42382.9	42553.2	98629.5	8851.15	267370	99025.9
	76.671	376.55	376.19	1.000001	29	2068	595419	14330.6	4.14244e+07	39505.6	41391.5	0.000045	595592	0.024068	0.011330	0.011330	2552.24	2553.14	211.415	1.863819	213.278	0.083475	28.9402	27.5527	0.109489	0.401560	0.039691	0.124724	0.023199	123538	12210.7	0.022075	0.004106	0.006311	0.029618	1941.45	0.005242	370719	47891.9	0.129186	7622.22	59001.8	59492.1	137303	17737.7	373800	138444
	83.4984	362.775	362.535	1.000001	31	2069	598167	23561.4	4.14987e+07	39581.4	41465.5	0.000045	598631	0.039389	0.026642	0.026635	2714.41	2714.65	373.985	1.863819	375.849	0.138357	72.3547	70.9678	0.114703	0.401141	0.039272	0.122375	0.020850	123409	12081.8	0.021659	0.003690	0.011181	0.029760	3439.83	0.005267	653298	123356	0.188820	19632.7	103976	105813	241962	45687.4	664843	246238
	90.3918	349.012	348.748	1.000001	34	2072	596120	28683.1	4.17005e+07	39771.2	41656.6	0.000045	596810	0.048116	0.035360	0.035346	2986.18	2985.77	647.931	1.863819	649.795	0.217495	105.63	104.244	0.130345	0.401515	0.039646	0.115992	0.014467	123524	12196.8	0.020530	0.002561	0.019278	0.029660	5930.64	0.005250	1.12947e+06	181197	0.160426	28838.4	179761	182059	418322	67110	1.14391e+06	423671
	97.2909	335.175	334.95	1.000001	37	2074	598927	23648.5	4.18335e+07	39909.1	41787	0.000045	599393	0.039485	0.026737	0.026731	3235.66	3236.21	900.178	1.863819	902.042	0.278574	86.5726	85.1884	0.140772	0.401904	0.040035	0.111784	0.010259	123644	12316.5	0.019785	0.001816	0.026870	0.029795	8266.36	0.005273	1.56792e+06	148074	0.094440	23566.7	249543	250653	580712	54842.2	1.5749e+06	583296
	104.108	321.525	321.315	1.000001	38	2075	593657	18209.8	4.19022e+07	39979.8	41836.8	0.000045	593936	0.030674	0.017933	0.017931	3353.64	3354.94	1019.82	1.863819	1021.69	0.304363	60.1958	58.8122	0.145986	0.401940	0.040071	0.109611	0.008086	123655	12327.7	0.019400	0.001431	0.030151	0.029529	9275.73	0.005226	1.77589e+06	102227	0.057564	16269.9	282641	283109	657736	37861.8	1.77883e+06	658825
	110.932	307.837	307.668	1.000001	39	2075	601278	16414.1	4.19187e+07	39989.1	41868.1	0.000045	601502	0.027299	0.014559	0.014558	3398.61	3400.13	1065.23	1.863819	1067.09	0.313667	49.5314	48.148	0.145986	0.400702	0.038833	0.109091	0.007566	123274	11946.7	0.019308	0.001339	0.031890	0.029906	9810.84	0.005293	1.85482e+06	83690.5	0.045121	13319.7	295203	295503	686969	30996.5	1.8567e+06	687668
	117.704	294.438	294.124	1.000001	39	2075	597837	15102.1	4.19389e+07	40017.6	41882.4	0.000045	598028	0.025261	0.012523	0.012522	3418.35	3419.98	1085.35	1.863819	1087.21	0.317727	42.8523	41.469	0.145986	0.399183	0.037315	0.108453	0.006928	122807	11479.6	0.019195	0.001226	0.032303	0.029734	9937.83	0.005263	1.88979e+06	72081.1	0.038142	11472.1	300769	300987	699921	26696.7	1.89116e+06	700430
	124.491	280.75	280.55	1.000001	39	2075	595469	14022.8	4.19669e+07	40046.1	41904.8	0.000045	595634	0.023549	0.010812	0.010811	3432.09	3433.81	1099.54	1.863819	1101.4	0.320579	37.1458	35.7627	0.145986	0.397071	0.035202	0.107565	0.006040	122157	10829.8	0.019038	0.001069	0.032593	0.029616	10027	0.005242	1.91445e+06	62162.5	0.032470	9893.46	304695	304855	709057	23023.1	1.91546e+06	709431
	131.287	267.137	266.958	1.000001	39	2075	594712	13855.5	4.19982e+07	40078.4	41935.5	0.000045	594873	0.023298	0.010560	0.010560	3436.47	3438.21	1104.35	1.863819	1106.21	0.321567	36.3295	34.9466	0.145986	0.394716	0.032847	0.106575	0.005050	121432	10105.3	0.018863	0.000894	0.032693	0.029578	10057.9	0.005235	1.92281e+06	60744	0.031591	9667.7	306025	306178	712153	22497.8	1.92377e+06	712509
	138.07	253.512	253.392	1.000001	39	2075	593736	13475.4	4.20325e+07	40116.2	41969	0.000045	593889	0.022696	0.009959	0.009958	3442.17	3443.93	1110.51	1.863819	1112.38	0.322822	34.3166	32.934	0.145986	0.392141	0.030272	0.105491	0.003966	120640	9313.04	0.018671	0.000702	0.032821	0.029529	10097.2	0.005226	1.93353e+06	57245.7	0.029607	9110.93	307730	307865	716122	21202.1	1.93438e+06	716436
	144.878	239.95	239.775	1.000001	39	2075	594256	13602.2	4.20698e+07	40153.1	42001.5	0.000045	594412	0.022890	0.010152	0.010152	3439.14	3440.9	1107.96	1.863819	1109.82	0.322363	34.9528	33.5704	0.145986	0.389339	0.027470	0.104312	0.002787	119778	8451.11	0.018462	0.000493	0.032774	0.029555	10082.8	0.005231	1.92908e+06	58351.9	0.030249	9286.99	307023	307163	714475	21611.8	1.92996e+06	714802
[...]
	486.516	239.675	239.451	1.000001	36	2074	594681	12223.8	4.19637e+07	40005.4	41943.8	0.000045	594807	0.020555	0.007819	0.007819	3172.49	3174.03	839.722	1.863819	841.585	0.264992	24.8301	23.447	0.140772	0.392098	0.030229	0.107666	0.006141	120627	9299.79	0.019056	0.001087	0.024869	0.029577	7650.81	0.005235	1.46284e+06	40755.4	0.027860	6486.42	232818	232908	541792	15094.6	1.46341e+06	542002
	493.345	226.062	225.793	1.000001	36	2074	592344	12645	4.19964e+07	40056.6	41965.2	0.000045	592479	0.021347	0.008611	0.008611	3184.95	3186.48	852.601	1.863819	854.464	0.267996	27.4524	26.0696	0.140772	0.389642	0.027773	0.106633	0.005108	119871	8544.18	0.018873	0.000904	0.025151	0.029461	7737.55	0.005214	1.48523e+06	45314	0.030510	7211.94	236381	236491	550083	16782.9	1.48592e+06	550339
	500.146	212.463	212.191	1.000001	36	2074	590283	12593.1	4.20287e+07	40087.1	42004	0.000045	590417	0.021334	0.008597	0.008597	3196.07	3197.62	864.151	1.863819	866.015	0.270674	27.5057	26.1231	0.140772	0.387214	0.025345	0.105612	0.004087	119124	7797.32	0.018692	0.000723	0.025402	0.029358	7814.86	0.005196	1.5053e+06	45407	0.030165	7226.75	239576	239685	557519	16817.4	1.50599e+06	557773
	506.955	198.812	198.573	1.000001	36	2074	588609	12436.2	4.20582e+07	40118.5	42022.4	0.000045	588741	0.021128	0.008392	0.008391	3205.17	3206.74	873.648	1.863819	875.512	0.272864	26.924	25.5416	0.140772	0.384997	0.023128	0.104679	0.003154	118442	7115.13	0.018527	0.000558	0.025608	0.029275	7878.1	0.005181	1.52181e+06	44396.3	0.029173	7065.88	242203	242306	563633	16443.1	1.52246e+06	563873
	513.838	185.175	184.808	1.000001	37	2074	602771	12027.2	4.20881e+07	40131.6	42078.6	0.000045	602891	0.019953	0.007217	0.007217	3216.89	3218.49	885.786	1.863819	887.65	0.275637	23.2407	21.8585	0.140772	0.382748	0.020879	0.103732	0.002207	117750	6423.32	0.018360	0.000391	0.026587	0.029979	8179.23	0.005306	1.54291e+06	37994.3	0.024625	6046.97	245561	245636	571448	14072	1.54338e+06	571621
	520.674	171.475	171.135	1.000001	37	2074	601333	12504.8	4.21195e+07	40163	42099.2	0.000044	601463	0.020795	0.008059	0.008058	3224.52	3226.12	893.809	1.863819	895.673	0.277472	26.0119	24.63	0.140772	0.380390	0.018521	0.102739	0.001214	117025	5698.04	0.018184	0.000215	0.026764	0.029908	8233.66	0.005293	1.55685e+06	42811.6	0.027499	6813.68	247781	247874	576612	15856.2	1.55744e+06	576830
	527.487	157.812	157.51	1.000001	37	2074	599815	11597.5	4.21491e+07	40182.9	42143.2	0.000044	599927	0.019335	0.006599	0.006599	3232.78	3234.42	902.48	1.863819	904.344	0.279439	21.356	19.9743	0.140772	0.378171	0.016303	0.101804	0.000279	116343	5015.4	0.018018	0.000049	0.026953	0.029831	8292.06	0.005280	1.57193e+06	34719.2	0.022087	5525.72	250180	250241	582195	12859	1.57231e+06	582337
	534.342	144.137	143.8	1.000001	37	2074	597757	12592.1	4.21768e+07	40231.6	42151.9	0.000044	597889	0.021066	0.008329	0.008329	3243.8	3245.4	913.815	1.863819	915.679	0.281984	27.0458	25.6642	0.140772	0.376089	0.014220	0.100926	0.000599	115702	4374.78	0.017863	0.000106	0.027199	0.029730	8367.58	0.005262	1.59163e+06	44609.4	0.028028	7099.8	253315	253415	589492	16522	1.59225e+06	589723
	541.146	130.512	130.19	1.000001	37	2074	596840	12299.2	4.22058e+07	40258.6	42174.1	0.000044	596967	0.020607	0.007871	0.007871	3248.81	3250.43	919.205	1.863819	921.068	0.283206	25.5976	24.2163	0.140772	0.373915	0.012046	0.100009	0.001516	115033	3705.84	0.017701	0.000268	0.027317	0.029684	8403.82	0.005254	1.601e+06	42092.5	0.026291	6699.23	254806	254894	592961	15589.8	1.60155e+06	593166
	547.965	116.85	116.553	1.000001	37	2074	595595	12552.9	4.22334e+07	40285.5	42205.4	0.000044	595727	0.021076	0.008340	0.008340	3255.57	3257.19	926.302	1.863819	928.165	0.284796	27.1784	25.7973	0.140772	0.371850	0.009981	0.099137	0.002387	114398	3070.7	0.017546	0.000423	0.027470	0.029622	8451.01	0.005243	1.61333e+06	44840.7	0.027794	7136.62	256769	256869	597530	16607.7	1.61395e+06	597761
	554.765	103.237	102.954	1.000001	37	2074	593802	12417.5	4.22614e+07	40311	42224.2	0.000044	593932	0.020912	0.008175	0.008175	3265.41	3267.04	936.504	1.863819	938.367	0.287058	26.7237	25.3428	0.140772	0.369747	0.007878	0.098250	0.003275	113751	2423.75	0.017389	0.000580	0.027688	0.029533	8518.14	0.005227	1.63106e+06	44050.8	0.027007	7010.89	259592	259686	604098	16315.1	1.63166e+06	604318
	561.57	89.6	89.3422	1.000001	37	2074	592201	12117.5	4.22875e+07	40344.5	42253.2	0.000044	592325	0.020462	0.007726	0.007725	3274.27	3275.92	945.7	1.863819	947.564	0.289087	25.3218	23.9411	0.140772	0.367795	0.005926	0.097426	0.004099	113150	1823.23	0.017243	0.000726	0.027884	0.029453	8578.33	0.005213	1.64705e+06	41614.2	0.025266	6623.1	262136	262220	610019	15412.7	1.64758e+06	610213
	568.39	77.9875	75.7031	1.000001	37	2074	590371	11885.4	4.23102e+07	40357.5	42272.2	0.000044	590491	0.020132	0.007396	0.007396	3284.44	3286.11	956.17	1.863819	958.033	0.291375	24.3168	22.9363	0.140772	0.366092	0.004224	0.096706	0.004819	112626	1299.34	0.017116	0.000853	0.028105	0.029362	8646.22	0.005197	1.66525e+06	39867.7	0.023941	6345.14	265032	265108	616758	14765.8	1.66573e+06	616935
	575.165	68.9	62.1523	1.000001	37	2074	590332	12504.2	4.23293e+07	40381	42286.5	0.000044	590464	0.021182	0.008445	0.008445	3284.59	3286.23	956.522	1.863819	958.386	0.291471	27.7679	26.3874	0.140772	0.364661	0.002793	0.096102	0.005423	112186	859.123	0.017009	0.000960	0.028114	0.029360	8649.08	0.005197	1.66586e+06	45866.5	0.027533	7299.87	265130	265230	616985	16987.6	1.66649e+06	617219
	581.962	61.4	48.5599	1.000001	37	2074	589582	12477.8	4.23457e+07	40403.8	42306.2	0.000044	589714	0.021164	0.008427	0.008427	3288.77	3290.42	960.904	1.863819	962.767	0.292432	27.744	26.3637	0.140772	0.363438	0.001569	0.095585	0.005940	111810	482.711	0.016918	0.001051	0.028206	0.029323	8677.58	0.005190	1.67348e+06	45825.2	0.027383	7293.3	266342	266442	619806	16972.3	1.6741e+06	620038
	586.394	57.3	39.6954	1.000001	37	2074	589206	12327.2	4.2354e+07	40409.1	42305.8	0.000044	589334	0.020922	0.008185	0.008185	3290.89	3292.54	963.128	1.863819	964.992	0.292918	26.9652	25.585	0.140772	0.362812	0.000944	0.095320	0.006205	111617	290.292	0.016871	0.001098	0.028253	0.029304	8692.03	0.005187	1.67734e+06	44471.7	0.026513	7077.89	266957	267051	621238	16471	1.67793e+06	621457

	BALANCE ZERO CALIBRATION RESULTS:
Date:	2/16/2016 3:55:56 PM
Zero Displacement Value:	45367595
Rebalance Force Value:	1980.000

	FORCE FACTOR CALIBRATION RESULTS:
Date:	7/27/2015 3:21:49 PM
Force Factor Value:	  383.599

	SPRING CALIBRATION RESULTS:
Date:	12/4/2014 2:37:24 PM
Stiffness polynomial = 	4.3980e-005, -7.5231e-014, 2.5704e-020, -3.6776e-029, -1.5883e-035, 2.9932e-045, 1.3748e-050
Spring Damping =	0.000593

	FORCE DISPLACEMENT CALIBRATION RESULTS:
Date:	2/22/2016 4:13:16 PM
Displacement Factor Value:	30874

	DE-MOD CONSTANT CALIBRATION RESULTS:
Date:	2/22/2016 4:13:16 PM
De-Mod Constant Value:	0.000562

	PHASE OFFSET CALIBRATION RESULTS:
Date:	2/22/2016 4:13:16 PM
Phase Offset Value:	   -0.009200

	DRIVE SHAFT MASS CALIBRATION RESULTS:
Date:	2/22/2016 4:13:16 PM
Drive Shaft Mass = 	   37.868 g

	OVEN CALIBRATION RESULTS:
Date:	2/22/2016 4:13:16 PM
Sensor Type = 	10
Oven Resistance = 	5.600 Ohms
Oven Name = 	Standard Air OvenStandard Air Oven

	TEMPERATURE CALIBRATION:
Date:	2/22/2016 4:13:16 PM
Upper Limit = 	400.00 °C
Lower Limit = 	-200.00 °C
Offset = 	-6.000
Span = 	-8.700
Ambient: 	Expected 	21.00 (°C)	Measured 	21.00 (°C)
Indium: 	Expected 	156.60 (°C)	Measured 	156.60 (°C)

	PID CALIBRATION:
Date:	12/16/2014 11:36:02 AM
Set Point =	 105.000 °C
PropBand = 	23.000
PropBandSP2 = 	13.000
Integral = 	2.100
Derivative = 	9.000
Calculated Integral = 	-57

	STIFFNESS INFINITY CALIBRATION RESULTS:
Date:	2/22/2016 4:13:16 PM
Stiffness Infinity = 	6130000.000

	INSTRUMENT INFOMATION CALIBRATION RESULTS:
Date:	2/22/2016 4:13:16 PM
DMA Serial Number = 	3066274
Vibrator Serial Number = 	22865
LVDT Serial Number = 	624.08
Analogue PCB Serial Number = 	890
Digital PCB Serial Number = 	895
PIC Code = 	603
FPGA Code = 	621
Instrument Type = 	2
AD Fitted = 	No

	PROFILE VALUES FOR THIS DATA:

Software Version	11.1.0.0488
Firmware Version	603.621
Load Temperature	22.0 °C
Go To Temp Rate	2.0 °C/min
Load Strain	0.010 mm
Load Frequency	1.0 Hz
Strain control window	0.02
Cooling Device
Automatic cryogenic control is 	Off
Automatic cryogenic control on temperature	50.0
Automatic cryogenic control off temperature	40.0
Number of averages	2
Broken sample threshold	0.0 %
Poisson's Ratio	0.35