File: FirefighterJacket/data/DMA/Nomex 1 Temperature Scan.txt
Filename:	P:\+Courses\MatSci\Spring2016\Emily_Adam\DMA\Nomex 1 Temperature Scan.dm8d
Operator ID:	Adam
Sample ID:	Nomex #1
Comment: 	Temperature Scan at .010 mm
Serial Number:	3066274
Data Collected:	2/22/2016 6:21:24 PM
Validation
Validated:	No
By:
Date:
Calibration Information
Filename:	C:\Program Files (x86)\PerkinElmer\Pyris\Calibrations\2_16_16 Tension.dm8c
Date/Time:
Initial Conditions
Temperature:
Measuring System:	Tension - Rectangle
Clamp Mass	9.343 g
Length:	5.650 mm
Width:	5.910 mm
Thickness:	0.550 mm
End Condition:	Go To Load
Total Points in Run:	1288
Method Steps:
Pre-Run Actions
Start the Run
	Action occurs Immediately
Switch the Gas to Nitrogen at 20.0 ml/min
	Action occurs Immediately
1)	Heat from 27.00°C to 400.00°C at 2.00°C/min

1) DMA8000 Temperature Scan
	Time     	Sample     	Program     	Frequency     	Raw Dynamic	Raw Static	In-Phase     	Out-Of-Phase	Zero Displacement	Min Displacement	Max Displacement	Spring     	C*     	Measured     	Corrected     	Corrected     	Stiffness*	Total     	Stiffness     	Inertia     	Sample     	Ratio of     	Total     	Sample     	Total Applied	Static Force	Static     	Static     	Static     	Static Stress	Static     	Static Strain	Static     	Dynamic Force	Displacement	Dynamic     	Dynamic     	Storage     	Loss Modulus	Tan Delta     	Loss Viscosity	Storage     	Complex     	Shear Storage	Shear Loss	Complex     	Shear Complex
	          	Temperature	Temperature	          	Force     	Force     	Angle     	Angle     	               	               	               	Stiffness     	          	Tan Delta     	Total Tan Delta	Total Delta	          	Stiffness'	Less Spring	          	Stiffness'	Sample to Total	Stiffness''	Stiffness''	Static Force	          	Force Corrected	Displacement	Displacement Co	          	Stress Correcte	          	Strain Correcte	          	Amplitude     	Stress     	Strain     	Modulus     	          	          	               	Viscosity     	Viscosity     	Modulus     	Modulus     	Modulus     	Modulus
	0.000000	26.4	27	1.000001	313	2281	939957	228895	4.32506e+07	40538.6	43540.9	0.000044	967425	0.243516	0.230069	0.226134	16959	16569.5	14249.8	1.863819	14251.7	0.860018	3822.98	3821.61	1.220025	1.375355	0.000000	0.066961	0.000000	423121	0.000000	0.011852	0.000000	0.701738	0.046780	215886	0.008280	2.47722e+07	6.64269e+06	0.268151	1.05722e+06	3.94261e+06	4.0819e+06	9.17489e+06	2.46026e+06	2.56474e+07	9.49902e+06
	7.242382	41.4	41.4848	1.000001	332	2296	974579	217575	4.37917e+07	41000.2	44093.5	0.000044	998571	0.223251	0.209920	0.206915	17427.4	17101.1	14786.2	1.863819	14788.1	0.864651	3600.32	3598.95	1.298232	1.413617	0.038261	0.049845	0.017116	434892	11770.9	0.008822	0.003029	0.748345	0.048486	230225	0.008582	2.57046e+07	6.25567e+06	0.243368	995619	4.09101e+06	4.21042e+06	9.52022e+06	2.31691e+06	2.64549e+07	9.7981e+06
	14.6885	56.4375	56.3771	1.000001	388	2338	961800	217860	4.50741e+07	42229.1	45320.8	0.000044	986165	0.226513	0.213164	0.210020	20623.2	20233.5	17927	1.863819	17928.8	0.886012	4327.94	4326.58	1.517211	1.538620	0.163265	0.009282	0.057679	473349	50227.7	0.001643	0.010209	0.896178	0.047828	275705	0.008465	3.11638e+07	7.52043e+06	0.241320	1.19691e+06	4.95986e+06	5.10224e+06	1.15421e+07	2.78535e+06	3.20583e+07	1.18735e+07
	22.1298	71.2375	71.2596	1.000001	455	2387	963629	218100	4.68471e+07	43900.6	47052.2	0.000044	988002	0.226331	0.212983	0.209848	24139.4	23697	21394.5	1.863819	21396.4	0.902847	5067.46	5066.1	1.772686	1.664941	0.289586	0.046796	0.020165	512211	89089.7	0.008283	0.003569	1.070899	0.047892	329457	0.008476	3.71911e+07	8.80586e+06	0.236773	1.40149e+06	5.91914e+06	6.0828e+06	1.37745e+07	3.26143e+06	3.82194e+07	1.41553e+07
	28.9246	84.8	84.8492	1.000001	551	2459	966464	218755	4.85874e+07	45563.2	48745.5	0.000044	990912	0.226346	0.212997	0.209861	29146.7	28634.3	26327.9	1.863819	26329.7	0.919458	6128.83	6127.46	2.148078	1.913183	0.537828	0.101844	0.034882	588581	165460	0.018025	0.006174	1.320706	0.047994	406309	0.008495	4.57662e+07	1.06507e+07	0.232720	1.69511e+06	7.28391e+06	7.47856e+06	1.69504e+07	3.94471e+06	4.69892e+07	1.74034e+07
	35.8715	98.8125	98.7429	1.000001	732	2596	969538	214396	5.08705e+07	47782.9	50981.2	0.000044	992959	0.221132	0.207812	0.204896	38641.4	38057.7	35734.4	1.863819	35736.3	0.938955	7960.12	7958.74	2.862367	2.457966	1.082610	0.174060	0.107098	756181	333060	0.030807	0.018955	1.791756	0.048070	551225	0.008508	6.21166e+07	1.38338e+07	0.222708	2.20172e+06	9.88615e+06	1.01284e+07	2.30061e+07	5.12364e+06	6.36384e+07	2.35698e+07
	43.7521	114.513	114.504	1.000001	1278	3005	961826	199584	5.50847e+07	51970.6	55118.2	0.000046	982315	0.207505	0.194258	0.191868	68195.1	67654.3	65268.7	1.863819	65270.5	0.964739	13293	13291.6	4.994804	4.261562	2.886207	0.307357	0.240395	1.31105e+06	887927	0.054399	0.042548	3.214131	0.047452	988811	0.008399	1.13453e+08	2.31034e+07	0.203639	3.67701e+06	1.80566e+07	1.84272e+07	4.20196e+07	8.55681e+06	1.15781e+08	4.2882e+07
	48.3396	123.737	123.679	1.000001	1278	3005	918450	181066	5.60607e+07	53003.8	56008.4	0.000046	936128	0.197143	0.183946	0.181913	71559.7	71168	68763	1.863819	68764.8	0.966207	13248.4	13246.9	4.994804	4.181346	2.805991	0.338228	0.271267	1.28637e+06	863249	0.059863	0.048012	3.219022	0.045281	990316	0.008014	1.19527e+08	2.30257e+07	0.192641	3.66466e+06	1.90232e+07	1.9373e+07	4.42691e+07	8.52805e+06	1.21724e+08	4.50831e+07
	52.9944	133.05	132.989	1.000001	1278	3005	877902	168975	5.66748e+07	53673.6	56550.8	0.000046	894016	0.192476	0.179303	0.177417	74930.5	74622.9	72204.8	1.863819	72206.7	0.967596	13548.3	13546.9	4.994804	4.129958	2.754603	0.357652	0.290691	1.27056e+06	847440	0.063301	0.051450	3.223651	0.043255	991740	0.007656	1.25509e+08	2.35471e+07	0.187613	3.74764e+06	1.99754e+07	2.03239e+07	4.64849e+07	8.72116e+06	1.27699e+08	4.72959e+07
	57.6063	142.3	142.213	1.000001	1278	3005	838666	158936	5.71708e+07	54232	56981.2	0.000046	853593	0.189510	0.176351	0.174556	78478.9	78241.7	75812.6	1.863819	75814.4	0.968954	13979.7	13978.3	4.994804	4.087906	2.712550	0.373343	0.306382	1.25762e+06	834502	0.066078	0.054227	3.228175	0.041296	993132	0.007309	1.3178e+08	2.42969e+07	0.184375	3.86698e+06	2.09734e+07	2.1327e+07	4.88075e+07	8.99887e+06	1.34001e+08	4.96301e+07
	62.2192	151.425	151.438	1.000001	1278	3005	800002	150089	5.76118e+07	54736.2	57360.8	0.000047	813960	0.187611	0.174460	0.172722	82300.2	82128.4	79689.1	1.863819	79691	0.970300	14526.1	14524.6	4.994804	4.050108	2.674753	0.387291	0.320330	1.246e+06	822874	0.068547	0.056696	3.232660	0.039367	994511	0.006968	1.38518e+08	2.52466e+07	0.182262	4.01812e+06	2.20459e+07	2.24091e+07	5.13031e+07	9.3506e+06	1.408e+08	5.21483e+07
	66.8428	160.812	160.686	1.000001	1278	3005	762705	141949	5.80264e+07	55211.6	57718.9	0.000047	775802	0.186113	0.172969	0.171274	86348.1	86245.5	83796.5	1.863819	83798.3	0.971605	15134.1	15132.7	4.994804	4.014201	2.638846	0.400406	0.333444	1.23495e+06	811828	0.070868	0.059017	3.237005	0.037506	995848	0.006638	1.45658e+08	2.63035e+07	0.180584	4.18633e+06	2.31821e+07	2.35571e+07	5.39473e+07	9.74204e+06	1.48014e+08	5.48199e+07
	71.4513	169.963	169.903	1.000001	1278	3005	730476	135009	5.84283e+07	55667.5	58071.5	0.000047	742848	0.184824	0.171685	0.170028	90178.7	90146.3	87687.5	1.863819	87689.4	0.972725	15711.3	15709.8	4.994804	3.979046	2.603691	0.413119	0.346157	1.22413e+06	801012	0.073118	0.061267	3.240739	0.035898	996997	0.006354	1.52421e+08	2.73067e+07	0.179153	4.346e+06	2.42586e+07	2.46448e+07	5.64523e+07	1.01136e+07	1.54848e+08	5.73511e+07
	76.1396	179.35	179.279	1.000001	1278	3005	698864	128187	5.88368e+07	56130.9	58432.6	0.000047	710523	0.183422	0.170290	0.168672	94281.4	94331.5	91862.6	1.863819	91864.5	0.973828	16318.3	16316.8	4.994804	3.942965	2.567610	0.426038	0.359076	1.21303e+06	789912	0.075405	0.063553	3.244413	0.034321	998127	0.006075	1.59678e+08	2.83618e+07	0.177618	4.51391e+06	2.54136e+07	2.58113e+07	5.91401e+07	1.05044e+07	1.62178e+08	6.00658e+07
	80.7905	188.675	188.581	1.000001	1278	3005	674179	122319	5.92447e+07	56577.4	58798.9	0.000047	685186	0.181434	0.168311	0.166748	97767.7	97907.2	95427.9	1.863819	95429.8	0.974678	16749.7	16748.3	4.994804	3.906560	2.531205	0.438941	0.371980	1.20183e+06	778712	0.077689	0.065837	3.247244	0.033089	998998	0.005856	1.65876e+08	2.91117e+07	0.175503	4.63327e+06	2.63999e+07	2.68034e+07	6.14354e+07	1.07821e+07	1.68411e+08	6.23744e+07
	85.3608	197.85	197.722	1.000001	1278	3005	654397	116933	5.96421e+07	57003.1	59166	0.000047	664762	0.178688	0.165577	0.164088	100771	101010	98520.8	1.863819	98522.6	0.975354	17008.4	17006.9	4.994804	3.870735	2.495380	0.451511	0.384550	1.19081e+06	767691	0.079913	0.068062	3.249496	0.032101	999691	0.005682	1.71251e+08	2.95613e+07	0.172619	4.70482e+06	2.72555e+07	2.76586e+07	6.34265e+07	1.09486e+07	1.73784e+08	6.43645e+07
	90.0482	207.225	207.096	1.000001	1278	3005	638931	112556	6.00586e+07	57437	59554	0.000048	648769	0.176163	0.163063	0.161640	103256	103585	101084	1.863819	101086	0.975860	17184.2	17182.7	4.994804	3.832800	2.457444	0.464685	0.397724	1.17914e+06	756020	0.082245	0.070394	3.251181	0.031328	1.00021e+06	0.005545	1.75708e+08	2.98668e+07	0.169980	4.75345e+06	2.79647e+07	2.83658e+07	6.50769e+07	1.10618e+07	1.78228e+08	6.60104e+07
	94.6687	216.425	216.337	1.000001	1278	3005	625479	108985	6.05009e+07	57892.5	59968.2	0.000048	634903	0.174243	0.161151	0.159777	105511	105919	103406	1.863819	103408	0.976278	17371.8	17370.3	4.994804	3.792067	2.416712	0.478676	0.411715	1.16661e+06	743489	0.084721	0.072870	3.252576	0.030657	1.00064e+06	0.005426	1.79744e+08	3.0193e+07	0.167978	4.80537e+06	2.86071e+07	2.90078e+07	6.65717e+07	1.11826e+07	1.82262e+08	6.75044e+07
	99.2795	225.613	225.559	1.000001	1278	3005	614600	106480	6.09948e+07	58390.8	60439.8	0.000048	623756	0.173251	0.160164	0.158815	107396	107862	105336	1.863819	105337	0.976578	17587.6	17586.1	4.994804	3.746035	2.370679	0.494298	0.427336	1.15245e+06	729328	0.087486	0.075635	3.253575	0.030114	1.00095e+06	0.005330	1.83097e+08	3.05681e+07	0.166950	4.86506e+06	2.91408e+07	2.95441e+07	6.78137e+07	1.13215e+07	1.85631e+08	6.87523e+07
	103.871	234.9	234.743	1.000001	1278	3005	607858	105104	6.15659e+07	58955.2	60987.4	0.000049	616878	0.172909	0.159823	0.158482	108594	109091	106549	1.863819	106551	0.976693	17753.8	17752.3	4.994804	3.692055	2.316699	0.512362	0.445400	1.13584e+06	712721	0.090683	0.078832	3.253957	0.029778	1.00106e+06	0.005270	1.85206e+08	3.08569e+07	0.166609	4.91102e+06	2.94764e+07	2.98827e+07	6.85947e+07	1.14285e+07	1.87759e+08	6.95403e+07
	108.447	243.988	243.895	1.000001	1278	3005	607032	105707	6.22645e+07	59633.4	61670	0.000049	616167	0.174137	0.161045	0.159674	108719	109197	106634	1.863819	106636	0.976528	17907.4	17905.9	4.994804	3.624894	2.249539	0.534458	0.467497	1.11518e+06	692059	0.094594	0.082743	3.253406	0.029737	1.00089e+06	0.005263	1.85354e+08	3.1124e+07	0.167916	4.95353e+06	2.95e+07	2.9913e+07	6.86497e+07	1.15274e+07	1.87949e+08	6.96108e+07
	113.043	253.137	253.086	1.000001	1278	3005	617466	111410	6.31716e+07	60475.1	62575.4	0.000049	627436	0.180430	0.167312	0.165776	106766	107090	104499	1.863819	104501	0.975807	18239.4	18237.9	4.994804	3.535742	2.160386	0.563152	0.496191	1.08775e+06	664632	0.099673	0.087821	3.251005	0.030261	1.00016e+06	0.005356	1.81643e+08	3.1701e+07	0.174524	5.04537e+06	2.89093e+07	2.93463e+07	6.7275e+07	1.17411e+07	1.84388e+08	6.82919e+07
	117.618	262.363	262.235	1.000001	1278	3005	635493	123528	6.427e+07	61492.5	63673.1	0.000050	647387	0.194381	0.181198	0.179254	103476	103479	100853	1.863819	100855	0.974622	19077.6	19076	4.994804	3.424664	2.049309	0.597894	0.530932	1.05358e+06	630460	0.105822	0.093970	3.247059	0.031168	998941	0.005516	1.75306e+08	3.31578e+07	0.189143	5.27723e+06	2.79008e+07	2.83954e+07	6.4928e+07	1.22807e+07	1.78414e+08	6.60792e+07
	122.206	271.475	271.411	1.000001	1278	3005	667296	141619	6.5544e+07	62626.1	64964.4	0.000051	682159	0.212228	0.198957	0.196392	98201.6	97788.5	95118.9	1.863819	95120.7	0.972701	19778.7	19777.1	4.994804	3.291105	1.915750	0.638193	0.571231	1.01249e+06	589371	0.112954	0.101103	3.240658	0.032766	996972	0.005799	1.65338e+08	3.43765e+07	0.207916	5.47118e+06	2.63144e+07	2.68771e+07	6.12364e+07	1.2732e+07	1.68874e+08	6.2546e+07
	124.055	275.2	275.109	1.000001	1278	3005	686563	150709	6.60876e+07	63091.9	65527.8	0.000051	702910	0.219512	0.206201	0.203351	95302.5	94718.7	92029.7	1.863819	92031.5	0.971611	19846.2	19844.6	4.994804	3.232426	1.857071	0.655387	0.588426	994440	571319	0.115998	0.104146	3.237025	0.033732	995854	0.005970	1.59969e+08	3.44937e+07	0.215628	5.48984e+06	2.54598e+07	2.60449e+07	5.92477e+07	1.27755e+07	1.63645e+08	6.06094e+07

	BALANCE ZERO CALIBRATION RESULTS:
Date:	2/16/2016 3:55:56 PM
Zero Displacement Value:	45367595
Rebalance Force Value:	1980.000

	FORCE FACTOR CALIBRATION RESULTS:
Date:	7/27/2015 3:21:49 PM
Force Factor Value:	  383.599

	SPRING CALIBRATION RESULTS:
Date:	12/4/2014 2:37:24 PM
Stiffness polynomial = 	4.3980e-005, -7.5231e-014, 2.5704e-020, -3.6776e-029, -1.5883e-035, 2.9932e-045, 1.3748e-050
Spring Damping =	0.000593

	FORCE DISPLACEMENT CALIBRATION RESULTS:
Date:	2/22/2016 4:13:16 PM
Displacement Factor Value:	30874

	DE-MOD CONSTANT CALIBRATION RESULTS:
Date:	2/22/2016 4:13:16 PM
De-Mod Constant Value:	0.000562

	PHASE OFFSET CALIBRATION RESULTS:
Date:	2/22/2016 4:13:16 PM
Phase Offset Value:	   -0.009200

	DRIVE SHAFT MASS CALIBRATION RESULTS:
Date:	2/22/2016 4:13:16 PM
Drive Shaft Mass = 	   37.868 g

	OVEN CALIBRATION RESULTS:
Date:	2/22/2016 4:13:16 PM
Sensor Type = 	10
Oven Resistance = 	5.600 Ohms
Oven Name = 	Standard Air OvenStandard Air Oven

	TEMPERATURE CALIBRATION:
Date:	2/22/2016 4:13:16 PM
Upper Limit = 	400.00 °C
Lower Limit = 	-200.00 °C
Offset = 	-6.000
Span = 	-8.700
Ambient: 	Expected 	21.00 (°C)	Measured 	21.00 (°C)
Indium: 	Expected 	156.60 (°C)	Measured 	156.60 (°C)

	PID CALIBRATION:
Date:	12/16/2014 11:36:02 AM
Set Point =	 105.000 °C
PropBand = 	23.000
PropBandSP2 = 	13.000
Integral = 	2.100
Derivative = 	9.000
Calculated Integral = 	-57

	STIFFNESS INFINITY CALIBRATION RESULTS:
Date:	2/22/2016 4:13:16 PM
Stiffness Infinity = 	6130000.000

	INSTRUMENT INFOMATION CALIBRATION RESULTS:
Date:	2/22/2016 4:13:16 PM
DMA Serial Number = 	3066274
Vibrator Serial Number = 	22865
LVDT Serial Number = 	624.08
Analogue PCB Serial Number = 	890
Digital PCB Serial Number = 	895
PIC Code = 	603
FPGA Code = 	621
Instrument Type = 	2
AD Fitted = 	No

	PROFILE VALUES FOR THIS DATA:

Software Version	11.1.0.0488
Firmware Version	603.621
Load Temperature	22.0 °C
Go To Temp Rate	2.0 °C/min
Load Strain	0.010 mm
Load Frequency	1.0 Hz
Strain control window	0.02
Cooling Device
Automatic cryogenic control is 	Off
Automatic cryogenic control on temperature	50.0
Automatic cryogenic control off temperature	40.0
Number of averages	2
Broken sample threshold	0.0 %
Poisson's Ratio	0.35